OOIBase32 Version 2.0.6.5 Data File
++++++++++++++++++++++++++++++++++++
Date: 11-17-2016, 11:08:37
User: Valued Ocean Optics Customer
Spectrometer Serial Number: USB4C01507
Spectrometer Channel: Master
Integration Time (msec): 49
Spectra Averaged: 25
Boxcar Smoothing: 5
Correct for Electrical Dark: Enabled
Time Normalized: Disabled
Dual-beam Reference: Disabled
Reference Channel: Master
Temperature: Not acquired
Spectrometer Type: S4000
ADC Type: USB4000
Number of Pixels in File: 3648
Graph Title: 
>>>>>Begin Spectral Data<<<<<
178.53	1643.487
178.74	2110.656
178.96	89.548
179.18	-21.191
179.39	326.891
179.61	-14.164
179.82	183.563
180.04	87.386
180.25	171.176
180.47	0.025
180.69	31.615
180.90	88.192
181.12	-115.188
181.33	85.236
181.55	81.725
181.76	-3790.379
181.98	113.028
182.20	697.399
182.41	-14.244
182.63	51.750
182.84	24.571
183.06	12.287
183.27	24.940
183.49	21.589
183.71	27.158
183.92	20.596
184.14	16.582
184.35	21.954
184.57	17.952
184.78	14.832
185.00	19.689
185.21	21.284
185.43	37.669
185.65	24.946
185.86	6.308
186.08	6.138
186.29	14.227
186.51	9.531
186.72	5.361
186.94	8.583
187.15	8.571
187.37	0.703
187.58	5.050
187.80	1.734
188.02	7.305
188.23	13.687
188.45	16.968
188.66	13.817
188.88	22.171
189.09	28.443
189.31	31.709
189.52	28.324
189.74	28.247
189.95	24.476
190.17	20.539
190.38	21.824
190.60	23.965
190.82	24.714
191.03	22.505
191.25	21.326
191.46	15.257
191.68	12.791
191.89	17.962
192.11	13.612
192.32	15.299
192.54	10.953
192.75	10.974
192.97	10.300
193.18	12.712
193.40	11.760
193.61	8.489
193.83	10.679
194.04	7.093
194.26	10.200
194.48	16.107
194.69	16.329
194.91	18.075
195.12	13.568
195.34	19.897
195.55	14.421
195.77	11.966
195.98	12.907
196.20	13.102
196.41	3.986
196.63	-0.407
196.84	-4.028
197.06	-5.362
197.27	-6.503
197.49	1.014
197.70	-13.307
197.92	-13.017
198.13	-8.676
198.35	-6.339
198.56	-6.561
198.78	-2.448
198.99	-2.558
199.21	-4.991
199.42	-6.666
199.64	-0.056
199.85	-0.210
200.07	10.532
200.28	16.425
200.50	19.084
200.71	18.437
200.93	22.834
201.14	26.843
201.36	29.464
201.57	32.632
201.79	34.850
202.00	29.034
202.22	24.789
202.43	21.234
202.65	17.751
202.86	16.770
203.08	18.573
203.29	11.214
203.51	8.105
203.72	8.899
203.94	9.269
204.15	6.055
204.37	14.450
204.58	14.057
204.80	15.037
205.01	16.981
205.22	13.503
205.44	11.784
205.65	7.841
205.87	4.246
206.08	2.553
206.30	-1.514
206.51	-4.525
206.73	-11.551
206.94	-12.641
207.16	-11.680
207.37	-14.793
207.59	-13.080
207.80	-11.178
208.02	-5.327
208.23	-0.450
208.45	-2.625
208.66	0.786
208.88	5.513
209.09	7.490
209.30	8.536
209.52	5.201
209.73	6.027
209.95	10.282
210.16	8.549
210.38	10.169
210.59	9.407
210.81	8.293
211.02	6.906
211.24	6.372
211.45	5.391
211.66	7.839
211.88	9.904
212.09	11.547
212.31	10.031
212.52	10.649
212.74	5.310
212.95	3.586
213.17	7.214
213.38	9.494
213.60	11.289
213.81	12.742
214.02	10.656
214.24	10.225
214.45	4.709
214.67	0.850
214.88	-0.939
215.10	4.122
215.31	6.622
215.53	2.451
215.74	2.466
215.95	2.940
216.17	1.302
216.38	0.869
216.60	-0.458
216.81	2.838
217.03	5.336
217.24	5.913
217.45	4.100
217.67	4.335
217.88	6.068
218.10	4.631
218.31	2.021
218.53	3.193
218.74	2.883
218.95	2.244
219.17	-1.511
219.38	0.200
219.60	2.828
219.81	3.334
220.03	3.823
220.24	3.610
220.45	3.543
220.67	4.022
220.88	3.714
221.10	4.735
221.31	5.262
221.53	6.867
221.74	4.635
221.95	3.504
222.17	1.991
222.38	1.786
222.60	2.114
222.81	1.050
223.02	1.317
223.24	1.503
223.45	1.794
223.67	1.321
223.88	1.181
224.09	2.249
224.31	2.678
224.52	3.892
224.74	3.159
224.95	3.385
225.16	4.454
225.38	3.655
225.59	3.359
225.81	2.747
226.02	2.696
226.23	2.472
226.45	2.545
226.66	1.980
226.88	1.663
227.09	2.249
227.30	2.091
227.52	1.940
227.73	1.917
227.95	1.950
228.16	1.934
228.37	1.876
228.59	1.888
228.80	1.776
229.02	1.804
229.23	1.812
229.44	1.714
229.66	1.670
229.87	1.612
230.08	1.629
230.30	1.500
230.51	1.614
230.73	1.658
230.94	1.620
231.15	1.627
231.37	1.754
231.58	1.676
231.80	1.735
232.01	2.015
232.22	2.032
232.44	2.303
232.65	2.757
232.86	2.236
233.08	2.213
233.29	2.022
233.51	2.054
233.72	1.768
233.93	2.033
234.15	1.850
234.36	1.508
234.57	1.390
234.79	1.318
235.00	1.163
235.21	1.599
235.43	1.636
235.64	1.681
235.86	1.647
236.07	1.976
236.28	1.571
236.50	1.496
236.71	1.883
236.92	2.216
237.14	2.199
237.35	2.210
237.56	1.963
237.78	2.047
237.99	2.139
238.20	2.150
238.42	2.006
238.63	2.090
238.84	2.413
239.06	2.123
239.27	1.763
239.48	1.798
239.70	1.792
239.91	1.657
240.13	1.521
240.34	1.641
240.55	1.634
240.77	1.627
240.98	1.624
241.19	1.631
241.41	1.483
241.62	1.610
241.83	1.475
242.05	1.500
242.26	1.531
242.47	1.539
242.69	1.547
242.90	1.612
243.11	1.612
243.33	1.631
243.54	1.518
243.75	1.659
243.97	1.549
244.18	1.782
244.39	1.808
244.61	1.773
244.82	1.862
245.03	1.803
245.24	1.635
245.46	1.618
245.67	1.752
245.88	1.732
246.10	1.653
246.31	1.653
246.52	1.512
246.74	1.453
246.95	1.419
247.16	1.401
247.38	1.341
247.59	1.364
247.80	1.343
248.02	1.280
248.23	1.252
248.44	1.268
248.66	1.297
248.87	1.333
249.08	1.368
249.29	1.367
249.51	1.352
249.72	1.511
249.93	1.441
250.15	1.482
250.36	1.404
250.57	1.376
250.79	1.440
251.00	1.400
251.21	1.470
251.42	1.454
251.64	1.578
251.85	1.678
252.06	1.660
252.28	1.572
252.49	1.524
252.70	1.561
252.91	1.704
253.13	1.729
253.34	1.760
253.55	1.804
253.77	1.805
253.98	1.912
254.19	1.700
254.40	1.643
254.62	1.718
254.83	1.649
255.04	1.748
255.26	1.547
255.47	1.246
255.68	1.298
255.89	1.368
256.11	1.395
256.32	1.264
256.53	1.426
256.75	1.326
256.96	1.448
257.17	1.570
257.38	1.565
257.60	1.629
257.81	1.671
258.02	1.464
258.23	1.257
258.45	1.255
258.66	1.275
258.87	1.221
259.09	1.243
259.30	1.218
259.51	1.180
259.72	1.167
259.94	1.139
260.15	1.110
260.36	1.188
260.57	1.211
260.79	1.180
261.00	1.163
261.21	1.147
261.42	1.165
261.64	1.194
261.85	1.222
262.06	1.216
262.27	1.292
262.49	1.347
262.70	1.249
262.91	1.321
263.12	1.434
263.34	1.394
263.55	1.470
263.76	1.433
263.97	1.496
264.19	1.640
264.40	1.562
264.61	1.645
264.82	1.669
265.04	1.704
265.25	1.571
265.46	1.545
265.67	1.523
265.88	1.468
266.10	1.400
266.31	1.372
266.52	1.274
266.73	1.442
266.95	1.321
267.16	1.330
267.37	1.292
267.58	1.316
267.80	1.410
268.01	1.417
268.22	1.393
268.43	1.441
268.64	1.399
268.86	1.398
269.07	1.296
269.28	1.205
269.49	1.214
269.71	1.235
269.92	1.158
270.13	1.123
270.34	1.116
270.55	1.192
270.77	1.295
270.98	1.333
271.19	1.320
271.40	1.325
271.61	1.390
271.83	1.323
272.04	1.261
272.25	1.361
272.46	1.224
272.68	1.311
272.89	1.241
273.10	1.177
273.31	1.104
273.52	1.142
273.74	1.026
273.95	0.915
274.16	0.998
274.37	1.018
274.58	0.971
274.80	1.121
275.01	1.034
275.22	1.052
275.43	1.079
275.64	1.195
275.86	1.167
276.07	1.256
276.28	1.485
276.49	1.418
276.70	1.358
276.91	1.332
277.13	1.247
277.34	1.260
277.55	1.387
277.76	1.355
277.97	1.278
278.19	1.285
278.40	1.417
278.61	1.384
278.82	1.477
279.03	1.532
279.24	1.482
279.46	1.546
279.67	1.547
279.88	1.366
280.09	1.442
280.30	1.413
280.52	1.428
280.73	1.397
280.94	1.354
281.15	1.368
281.36	1.384
281.57	1.509
281.79	1.481
282.00	1.410
282.21	1.391
282.42	1.315
282.63	1.355
282.84	1.325
283.06	1.290
283.27	1.336
283.48	1.246
283.69	1.140
283.90	1.138
284.11	1.071
284.32	1.128
284.54	1.246
284.75	1.201
284.96	1.125
285.17	1.127
285.38	1.110
285.59	1.057
285.81	1.059
286.02	1.225
286.23	1.211
286.44	1.284
286.65	1.332
286.86	1.254
287.07	1.250
287.29	1.284
287.50	1.254
287.71	1.226
287.92	1.307
288.13	1.291
288.34	1.179
288.55	1.198
288.77	1.196
288.98	1.127
289.19	1.140
289.40	1.168
289.61	1.247
289.82	1.227
290.03	1.258
290.24	1.197
290.46	1.204
290.67	1.260
290.88	1.281
291.09	1.209
291.30	1.270
291.51	1.305
291.72	1.355
291.93	1.340
292.15	1.360
292.36	1.525
292.57	1.481
292.78	1.472
292.99	1.381
293.20	1.374
293.41	1.342
293.62	1.288
293.84	1.325
294.05	1.296
294.26	1.277
294.47	1.303
294.68	1.203
294.89	1.312
295.10	1.286
295.31	1.279
295.52	1.225
295.73	1.195
295.95	1.211
296.16	1.283
296.37	1.310
296.58	1.340
296.79	1.359
297.00	1.323
297.21	1.264
297.42	1.253
297.63	1.301
297.84	1.304
298.06	1.305
298.27	1.295
298.48	1.292
298.69	1.220
298.90	1.198
299.11	1.185
299.32	1.206
299.53	1.205
299.74	1.259
299.95	1.228
300.16	1.172
300.38	1.250
300.59	1.186
300.80	0.985
301.01	1.010
301.22	0.929
301.43	0.874
301.64	0.800
301.85	0.758
302.06	0.786
302.27	0.755
302.48	0.806
302.69	0.776
302.91	0.797
303.12	0.925
303.33	0.974
303.54	1.046
303.75	1.054
303.96	1.146
304.17	1.188
304.38	1.169
304.59	1.182
304.80	1.167
305.01	1.210
305.22	1.215
305.43	1.176
305.64	1.159
305.85	1.078
306.06	1.155
306.28	1.080
306.49	1.066
306.70	1.013
306.91	1.019
307.12	1.010
307.33	0.894
307.54	0.917
307.75	0.907
307.96	0.823
308.17	0.922
308.38	0.870
308.59	0.856
308.80	0.888
309.01	0.942
309.22	0.916
309.43	0.897
309.64	0.969
309.85	1.011
310.06	1.018
310.27	1.124
310.48	1.092
310.70	1.106
310.91	1.125
311.12	1.100
311.33	1.032
311.54	0.998
311.75	1.008
311.96	1.045
312.17	1.001
312.38	1.012
312.59	0.959
312.80	0.981
313.01	0.881
313.22	0.874
313.43	0.839
313.64	0.802
313.85	0.769
314.06	0.846
314.27	0.775
314.48	0.813
314.69	0.850
314.90	0.921
315.11	0.833
315.32	0.884
315.53	0.831
315.74	0.821
315.95	0.896
316.16	0.965
316.37	0.837
316.58	0.826
316.79	0.747
317.00	0.701
317.21	0.576
317.42	0.609
317.63	0.684
317.84	0.751
318.05	0.720
318.26	0.709
318.47	0.647
318.68	0.755
318.89	0.749
319.10	0.755
319.31	0.728
319.52	0.779
319.73	0.832
319.94	0.799
320.15	0.753
320.36	0.872
320.57	0.878
320.78	0.902
320.99	0.774
321.20	0.812
321.41	0.814
321.62	0.821
321.83	0.849
322.04	0.821
322.25	0.809
322.46	0.748
322.67	0.746
322.88	0.737
323.09	0.721
323.30	0.720
323.51	0.661
323.72	0.629
323.93	0.607
324.14	0.622
324.35	0.614
324.56	0.690
324.77	0.723
324.98	0.613
325.19	0.644
325.40	0.717
325.61	0.761
325.82	0.811
326.03	0.847
326.24	0.900
326.45	0.883
326.65	0.817
326.86	0.707
327.07	0.782
327.28	0.815
327.49	0.791
327.70	0.734
327.91	0.775
328.12	0.739
328.33	0.739
328.54	0.754
328.75	0.748
328.96	0.822
329.17	0.822
329.38	0.798
329.59	0.839
329.80	0.878
330.01	0.943
330.22	0.878
330.43	0.885
330.64	0.888
330.85	0.846
331.05	0.828
331.26	0.832
331.47	0.861
331.68	0.872
331.89	0.902
332.10	0.884
332.31	0.831
332.52	0.846
332.73	0.795
332.94	0.824
333.15	0.851
333.36	0.862
333.57	0.822
333.78	0.793
333.99	0.717
334.19	0.686
334.40	0.650
334.61	0.695
334.82	0.760
335.03	0.773
335.24	0.748
335.45	0.753
335.66	0.728
335.87	0.752
336.08	0.813
336.29	0.843
336.50	0.819
336.71	0.937
336.91	0.915
337.12	0.794
337.33	0.808
337.54	0.876
337.75	0.857
337.96	0.823
338.17	0.832
338.38	0.803
338.59	0.859
338.80	0.814
339.01	0.710
339.21	0.670
339.42	0.725
339.63	0.709
339.84	0.668
340.05	0.673
340.26	0.684
340.47	0.692
340.68	0.681
340.89	0.619
341.10	0.645
341.30	0.684
341.51	0.732
341.72	0.766
341.93	0.830
342.14	0.768
342.35	0.778
342.56	0.794
342.77	0.810
342.98	0.806
343.18	0.832
343.39	0.870
343.60	0.849
343.81	0.838
344.02	0.899
344.23	0.867
344.44	0.836
344.65	0.816
344.85	0.770
345.06	0.741
345.27	0.723
345.48	0.645
345.69	0.631
345.90	0.669
346.11	0.664
346.32	0.583
346.52	0.598
346.73	0.664
346.94	0.661
347.15	0.690
347.36	0.633
347.57	0.663
347.78	0.720
347.98	0.711
348.19	0.693
348.40	0.677
348.61	0.711
348.82	0.720
349.03	0.713
349.24	0.687
349.44	0.675
349.65	0.748
349.86	0.720
350.07	0.757
350.28	0.767
350.49	0.730
350.70	0.704
350.90	0.647
351.11	0.600
351.32	0.609
351.53	0.646
351.74	0.662
351.95	0.594
352.15	0.630
352.36	0.614
352.57	0.623
352.78	0.646
352.99	0.698
353.20	0.753
353.40	0.776
353.61	0.723
353.82	0.722
354.03	0.761
354.24	0.789
354.45	0.808
354.65	0.791
354.86	0.807
355.07	0.813
355.28	0.820
355.49	0.832
355.70	0.791
355.90	0.848
356.11	0.862
356.32	0.865
356.53	0.899
356.74	0.909
356.94	0.882
357.15	0.849
357.36	0.828
357.57	0.794
357.78	0.747
357.99	0.788
358.19	0.804
358.40	0.806
358.61	0.814
358.82	0.815
359.03	0.775
359.23	0.792
359.44	0.820
359.65	0.793
359.86	0.813
360.07	0.844
360.27	0.858
360.48	0.872
360.69	0.869
360.90	0.861
361.11	0.910
361.31	0.933
361.52	0.941
361.73	0.956
361.94	0.979
362.15	0.946
362.35	0.924
362.56	0.925
362.77	0.887
362.98	0.879
363.18	0.850
363.39	0.775
363.60	0.769
363.81	0.792
364.02	0.786
364.22	0.823
364.43	0.836
364.64	0.832
364.85	0.807
365.05	0.808
365.26	0.782
365.47	0.822
365.68	0.852
365.89	0.835
366.09	0.861
366.30	0.840
366.51	0.826
366.72	0.823
366.92	0.867
367.13	0.914
367.34	0.924
367.55	0.933
367.75	0.903
367.96	0.898
368.17	0.911
368.38	0.911
368.58	0.887
368.79	0.864
369.00	0.873
369.21	0.844
369.41	0.816
369.62	0.792
369.83	0.799
370.04	0.795
370.24	0.795
370.45	0.825
370.66	0.786
370.87	0.775
371.07	0.750
371.28	0.785
371.49	0.769
371.70	0.772
371.90	0.804
372.11	0.798
372.32	0.831
372.53	0.845
372.73	0.806
372.94	0.796
373.15	0.847
373.36	0.883
373.56	0.910
373.77	0.923
373.98	0.923
374.19	0.904
374.39	0.906
374.60	0.911
374.81	0.881
375.01	0.917
375.22	0.899
375.43	0.891
375.64	0.903
375.84	0.876
376.05	0.885
376.26	0.886
376.46	0.855
376.67	0.873
376.88	0.866
377.09	0.864
377.29	0.822
377.50	0.838
377.71	0.845
377.91	0.859
378.12	0.852
378.33	0.851
378.54	0.849
378.74	0.898
378.95	0.865
379.16	0.873
379.36	0.875
379.57	0.904
379.78	0.918
379.99	0.928
380.19	0.895
380.40	0.878
380.61	0.878
380.81	0.850
381.02	0.834
381.23	0.845
381.43	0.817
381.64	0.858
381.85	0.869
382.05	0.864
382.26	0.850
382.47	0.834
382.67	0.833
382.88	0.833
383.09	0.862
383.30	0.878
383.50	0.901
383.71	0.895
383.92	0.868
384.12	0.859
384.33	0.842
384.54	0.847
384.74	0.880
384.95	0.863
385.16	0.852
385.36	0.848
385.57	0.831
385.78	0.814
385.98	0.835
386.19	0.810
386.40	0.811
386.60	0.822
386.81	0.780
387.02	0.769
387.22	0.784
387.43	0.789
387.64	0.799
387.84	0.823
388.05	0.838
388.26	0.809
388.46	0.814
388.67	0.833
388.88	0.845
389.08	0.881
389.29	0.889
389.49	0.896
389.70	0.891
389.91	0.880
390.11	0.824
390.32	0.819
390.53	0.839
390.73	0.866
390.94	0.840
391.15	0.847
391.35	0.849
391.56	0.858
391.77	0.868
391.97	0.862
392.18	0.861
392.38	0.902
392.59	0.912
392.80	0.926
393.00	0.913
393.21	0.917
393.42	0.916
393.62	0.920
393.83	0.925
394.04	0.919
394.24	0.925
394.45	0.910
394.65	0.933
394.86	0.925
395.07	0.913
395.27	0.891
395.48	0.859
395.68	0.868
395.89	0.857
396.10	0.837
396.30	0.816
396.51	0.857
396.72	0.888
396.92	0.853
397.13	0.846
397.33	0.833
397.54	0.846
397.75	0.888
397.95	0.884
398.16	0.877
398.36	0.893
398.57	0.921
398.78	0.881
398.98	0.882
399.19	0.878
399.39	0.904
399.60	0.918
399.81	0.935
400.01	0.916
400.22	0.910
400.42	0.914
400.63	0.894
400.84	0.896
401.04	0.916
401.25	0.883
401.45	0.900
401.66	0.862
401.86	0.864
402.07	0.854
402.28	0.884
402.48	0.856
402.69	0.869
402.89	0.879
403.10	0.880
403.31	0.881
403.51	0.896
403.72	0.891
403.92	0.916
404.13	0.914
404.33	0.928
404.54	0.912
404.75	0.933
404.95	0.954
405.16	0.944
405.36	0.939
405.57	0.928
405.77	0.927
405.98	0.927
406.18	0.923
406.39	0.925
406.60	0.905
406.80	0.903
407.01	0.902
407.21	0.888
407.42	0.907
407.62	0.918
407.83	0.912
408.03	0.914
408.24	0.930
408.45	0.919
408.65	0.917
408.86	0.944
409.06	0.952
409.27	0.955
409.47	0.917
409.68	0.895
409.88	0.892
410.09	0.908
410.29	0.915
410.50	0.915
410.71	0.953
410.91	0.980
411.12	0.965
411.32	0.952
411.53	0.941
411.73	0.964
411.94	0.958
412.14	0.970
412.35	0.969
412.55	0.976
412.76	0.967
412.96	0.949
413.17	0.938
413.37	0.956
413.58	0.980
413.78	0.979
413.99	0.992
414.19	1.046
414.40	1.040
414.61	1.027
414.81	1.020
415.02	1.022
415.22	1.013
415.43	1.004
415.63	0.998
415.84	0.986
416.04	0.995
416.25	0.981
416.45	0.944
416.66	0.969
416.86	0.986
417.07	0.990
417.27	0.987
417.48	0.979
417.68	0.991
417.89	0.996
418.09	0.996
418.30	0.992
418.50	0.962
418.71	0.971
418.91	0.946
419.12	0.932
419.32	0.928
419.53	0.918
419.73	0.927
419.94	0.932
420.14	0.917
420.34	0.916
420.55	0.926
420.75	0.949
420.96	0.942
421.16	0.948
421.37	0.962
421.57	0.974
421.78	0.991
421.98	0.983
422.19	0.982
422.39	1.000
422.60	0.995
422.80	0.988
423.01	0.999
423.21	1.015
423.42	1.014
423.62	1.001
423.83	0.977
424.03	0.971
424.23	0.982
424.44	0.966
424.64	0.956
424.85	0.945
425.05	0.941
425.26	0.950
425.46	0.947
425.67	0.936
425.87	0.945
426.08	0.967
426.28	0.963
426.48	0.948
426.69	0.969
426.89	0.987
427.10	1.030
427.30	1.058
427.51	1.049
427.71	1.036
427.92	1.024
428.12	1.013
428.32	0.994
428.53	0.980
428.73	0.991
428.94	0.980
429.14	0.961
429.35	0.941
429.55	0.931
429.76	0.935
429.96	0.948
430.16	0.988
430.37	0.991
430.57	1.007
430.78	1.041
430.98	1.050
431.19	1.050
431.39	1.058
431.59	1.050
431.80	1.055
432.00	1.022
432.21	1.006
432.41	0.994
432.61	0.995
432.82	0.990
433.02	0.989
433.23	0.982
433.43	0.986
433.64	0.979
433.84	1.001
434.04	0.994
434.25	1.019
434.45	1.041
434.66	1.037
434.86	1.047
435.06	1.053
435.27	1.053
435.47	1.059
435.68	1.042
435.88	1.056
436.08	1.032
436.29	1.022
436.49	1.023
436.70	1.008
436.90	1.016
437.10	1.016
437.31	1.004
437.51	0.994
437.71	0.991
437.92	1.005
438.12	0.992
438.33	1.006
438.53	1.009
438.73	1.019
438.94	1.027
439.14	1.033
439.35	1.020
439.55	1.029
439.75	1.026
439.96	1.026
440.16	1.039
440.36	1.047
440.57	1.051
440.77	1.059
440.97	1.057
441.18	1.059
441.38	1.055
441.59	1.070
441.79	1.071
441.99	1.088
442.20	1.082
442.40	1.070
442.60	1.083
442.81	1.075
443.01	1.069
443.21	1.047
443.42	1.028
443.62	1.040
443.83	1.033
444.03	1.040
444.23	1.045
444.44	1.049
444.64	1.050
444.84	1.045
445.05	1.044
445.25	1.035
445.45	1.046
445.66	1.055
445.86	1.045
446.06	1.052
446.27	1.051
446.47	1.041
446.67	1.052
446.88	1.058
447.08	1.065
447.28	1.071
447.49	1.080
447.69	1.081
447.89	1.095
448.10	1.100
448.30	1.104
448.50	1.089
448.71	1.090
448.91	1.091
449.11	1.078
449.32	1.072
449.52	1.076
449.72	1.087
449.93	1.085
450.13	1.075
450.33	1.086
450.53	1.070
450.74	1.088
450.94	1.091
451.14	1.081
451.35	1.106
451.55	1.105
451.75	1.112
451.96	1.106
452.16	1.110
452.36	1.127
452.57	1.136
452.77	1.159
452.97	1.154
453.17	1.152
453.38	1.170
453.58	1.131
453.78	1.131
453.99	1.123
454.19	1.147
454.39	1.149
454.59	1.145
454.80	1.134
455.00	1.128
455.20	1.114
455.41	1.114
455.61	1.107
455.81	1.146
456.01	1.138
456.22	1.144
456.42	1.114
456.62	1.124
456.83	1.116
457.03	1.107
457.23	1.090
457.43	1.107
457.64	1.114
457.84	1.099
458.04	1.092
458.25	1.097
458.45	1.092
458.65	1.099
458.85	1.085
459.06	1.075
459.26	1.077
459.46	1.089
459.66	1.094
459.87	1.098
460.07	1.109
460.27	1.114
460.47	1.108
460.68	1.122
460.88	1.124
461.08	1.129
461.28	1.136
461.49	1.133
461.69	1.149
461.89	1.153
462.09	1.147
462.30	1.145
462.50	1.146
462.70	1.168
462.90	1.148
463.11	1.156
463.31	1.166
463.51	1.157
463.71	1.170
463.92	1.163
464.12	1.158
464.32	1.165
464.52	1.153
464.72	1.167
464.93	1.153
465.13	1.163
465.33	1.157
465.53	1.156
465.74	1.172
465.94	1.167
466.14	1.155
466.34	1.161
466.54	1.148
466.75	1.150
466.95	1.116
467.15	1.123
467.35	1.113
467.56	1.122
467.76	1.127
467.96	1.134
468.16	1.124
468.36	1.131
468.57	1.143
468.77	1.155
468.97	1.166
469.17	1.176
469.37	1.164
469.58	1.174
469.78	1.179
469.98	1.177
470.18	1.169
470.38	1.182
470.59	1.175
470.79	1.169
470.99	1.158
471.19	1.156
471.39	1.173
471.60	1.181
471.80	1.174
472.00	1.165
472.20	1.171
472.40	1.182
472.61	1.180
472.81	1.187
473.01	1.173
473.21	1.177
473.41	1.171
473.61	1.169
473.82	1.187
474.02	1.195
474.22	1.191
474.42	1.192
474.62	1.189
474.82	1.189
475.03	1.213
475.23	1.213
475.43	1.228
475.63	1.234
475.83	1.228
476.03	1.213
476.24	1.198
476.44	1.209
476.64	1.201
476.84	1.197
477.04	1.197
477.24	1.172
477.45	1.184
477.65	1.185
477.85	1.185
478.05	1.181
478.25	1.177
478.45	1.185
478.65	1.184
478.86	1.190
479.06	1.186
479.26	1.199
479.46	1.207
479.66	1.213
479.86	1.202
480.06	1.211
480.27	1.208
480.47	1.212
480.67	1.210
480.87	1.205
481.07	1.200
481.27	1.217
481.47	1.226
481.68	1.224
481.88	1.216
482.08	1.227
482.28	1.237
482.48	1.247
482.68	1.248
482.88	1.251
483.08	1.255
483.29	1.252
483.49	1.242
483.69	1.229
483.89	1.228
484.09	1.232
484.29	1.232
484.49	1.232
484.69	1.230
484.89	1.233
485.10	1.235
485.30	1.239
485.50	1.248
485.70	1.259
485.90	1.270
486.10	1.277
486.30	1.280
486.50	1.274
486.70	1.266
486.90	1.264
487.11	1.258
487.31	1.255
487.51	1.247
487.71	1.241
487.91	1.240
488.11	1.241
488.31	1.247
488.51	1.245
488.71	1.248
488.91	1.259
489.11	1.261
489.32	1.263
489.52	1.268
489.72	1.280
489.92	1.288
490.12	1.299
490.32	1.305
490.52	1.291
490.72	1.282
490.92	1.275
491.12	1.260
491.32	1.266
491.52	1.265
491.72	1.265
491.92	1.264
492.13	1.271
492.33	1.268
492.53	1.271
492.73	1.277
492.93	1.294
493.13	1.305
493.33	1.326
493.53	1.336
493.73	1.350
493.93	1.354
494.13	1.359
494.33	1.351
494.53	1.357
494.73	1.348
494.93	1.358
495.13	1.351
495.33	1.351
495.53	1.335
495.73	1.325
495.94	1.323
496.14	1.322
496.34	1.311
496.54	1.311
496.74	1.300
496.94	1.304
497.14	1.286
497.34	1.287
497.54	1.287
497.74	1.288
497.94	1.285
498.14	1.289
498.34	1.293
498.54	1.307
498.74	1.306
498.94	1.307
499.14	1.303
499.34	1.306
499.54	1.303
499.74	1.312
499.94	1.317
500.14	1.329
500.34	1.324
500.54	1.336
500.74	1.324
500.94	1.324
501.14	1.334
501.34	1.345
501.54	1.354
501.74	1.346
501.94	1.331
502.14	1.335
502.34	1.332
502.54	1.330
502.74	1.315
502.94	1.320
503.14	1.329
503.34	1.321
503.54	1.335
503.74	1.338
503.94	1.345
504.14	1.355
504.34	1.353
504.54	1.370
504.74	1.375
504.94	1.377
505.14	1.382
505.34	1.386
505.54	1.391
505.74	1.383
505.94	1.388
506.14	1.402
506.34	1.406
506.54	1.414
506.74	1.400
506.94	1.391
507.14	1.379
507.34	1.368
507.54	1.361
507.74	1.357
507.94	1.352
508.14	1.355
508.34	1.347
508.54	1.347
508.74	1.350
508.94	1.354
509.13	1.352
509.33	1.367
509.53	1.383
509.73	1.392
509.93	1.397
510.13	1.406
510.33	1.403
510.53	1.399
510.73	1.403
510.93	1.412
511.13	1.408
511.33	1.416
511.53	1.426
511.73	1.420
511.93	1.423
512.13	1.424
512.33	1.428
512.53	1.433
512.73	1.440
512.92	1.444
513.12	1.432
513.32	1.446
513.52	1.463
513.72	1.455
513.92	1.454
514.12	1.451
514.32	1.453
514.52	1.439
514.72	1.434
514.92	1.436
515.12	1.435
515.32	1.424
515.52	1.422
515.71	1.414
515.91	1.415
516.11	1.429
516.31	1.429
516.51	1.415
516.71	1.428
516.91	1.442
517.11	1.442
517.31	1.438
517.51	1.455
517.71	1.453
517.90	1.452
518.10	1.455
518.30	1.456
518.50	1.451
518.70	1.463
518.90	1.463
519.10	1.452
519.30	1.451
519.50	1.455
519.69	1.453
519.89	1.458
520.09	1.458
520.29	1.461
520.49	1.453
520.69	1.468
520.89	1.477
521.09	1.470
521.29	1.482
521.48	1.491
521.68	1.494
521.88	1.494
522.08	1.493
522.28	1.499
522.48	1.497
522.68	1.512
522.88	1.507
523.07	1.514
523.27	1.521
523.47	1.521
523.67	1.523
523.87	1.523
524.07	1.522
524.27	1.521
524.47	1.514
524.66	1.510
524.86	1.513
525.06	1.511
525.26	1.515
525.46	1.517
525.66	1.517
525.85	1.511
526.05	1.521
526.25	1.518
526.45	1.519
526.65	1.530
526.85	1.539
527.05	1.545
527.24	1.552
527.44	1.536
527.64	1.532
527.84	1.525
528.04	1.521
528.24	1.505
528.43	1.509
528.63	1.510
528.83	1.513
529.03	1.513
529.23	1.509
529.43	1.510
529.62	1.513
529.82	1.515
530.02	1.523
530.22	1.531
530.42	1.546
530.62	1.547
530.81	1.553
531.01	1.551
531.21	1.555
531.41	1.560
531.61	1.557
531.80	1.557
532.00	1.560
532.20	1.548
532.40	1.552
532.60	1.554
532.79	1.558
532.99	1.549
533.19	1.556
533.39	1.558
533.59	1.567
533.78	1.568
533.98	1.571
534.18	1.581
534.38	1.603
534.58	1.614
534.77	1.620
534.97	1.623
535.17	1.635
535.37	1.631
535.57	1.631
535.76	1.616
535.96	1.610
536.16	1.607
536.36	1.597
536.56	1.576
536.75	1.574
536.95	1.576
537.15	1.586
537.35	1.591
537.54	1.601
537.74	1.599
537.94	1.601
538.14	1.608
538.34	1.618
538.53	1.631
538.73	1.648
538.93	1.638
539.13	1.648
539.32	1.665
539.52	1.662
539.72	1.664
539.92	1.664
540.11	1.654
540.31	1.643
540.51	1.632
540.71	1.619
540.90	1.607
541.10	1.612
541.30	1.604
541.50	1.596
541.69	1.594
541.89	1.585
542.09	1.589
542.29	1.596
542.48	1.604
542.68	1.613
542.88	1.619
543.08	1.639
543.27	1.641
543.47	1.651
543.67	1.657
543.87	1.669
544.06	1.671
544.26	1.667
544.46	1.664
544.65	1.674
544.85	1.678
545.05	1.684
545.25	1.679
545.44	1.672
545.64	1.675
545.84	1.670
546.04	1.672
546.23	1.672
546.43	1.669
546.63	1.674
546.82	1.660
547.02	1.662
547.22	1.664
547.42	1.663
547.61	1.676
547.81	1.676
548.01	1.677
548.20	1.677
548.40	1.683
548.60	1.696
548.79	1.685
548.99	1.706
549.19	1.689
549.39	1.672
549.58	1.678
549.78	1.668
549.98	1.673
550.17	1.675
550.37	1.667
550.57	1.673
550.76	1.661
550.96	1.684
551.16	1.673
551.35	1.687
551.55	1.700
551.75	1.694
551.94	1.697
552.14	1.699
552.34	1.690
552.53	1.704
552.73	1.701
552.93	1.711
553.13	1.702
553.32	1.705
553.52	1.717
553.72	1.717
553.91	1.726
554.11	1.733
554.31	1.729
554.50	1.741
554.70	1.722
554.89	1.746
555.09	1.749
555.29	1.756
555.48	1.761
555.68	1.754
555.88	1.754
556.07	1.747
556.27	1.751
556.47	1.755
556.66	1.762
556.86	1.783
557.06	1.772
557.25	1.769
557.45	1.763
557.65	1.768
557.84	1.766
558.04	1.767
558.23	1.767
558.43	1.767
558.63	1.763
558.82	1.753
559.02	1.728
559.22	1.726
559.41	1.738
559.61	1.746
559.81	1.736
560.00	1.754
560.20	1.772
560.39	1.769
560.59	1.768
560.79	1.767
560.98	1.775
561.18	1.788
561.37	1.788
561.57	1.788
561.77	1.785
561.96	1.783
562.16	1.777
562.36	1.778
562.55	1.787
562.75	1.789
562.94	1.804
563.14	1.803
563.34	1.815
563.53	1.823
563.73	1.815
563.92	1.832
564.12	1.827
564.32	1.820
564.51	1.812
564.71	1.817
564.90	1.823
565.10	1.812
565.29	1.825
565.49	1.822
565.69	1.822
565.88	1.822
566.08	1.816
566.27	1.826
566.47	1.818
566.67	1.822
566.86	1.829
567.06	1.840
567.25	1.851
567.45	1.847
567.64	1.847
567.84	1.858
568.04	1.876
568.23	1.875
568.43	1.886
568.62	1.900
568.82	1.895
569.01	1.900
569.21	1.879
569.41	1.889
569.60	1.891
569.80	1.900
569.99	1.884
570.19	1.885
570.38	1.886
570.58	1.889
570.77	1.895
570.97	1.902
571.17	1.904
571.36	1.912
571.56	1.907
571.75	1.901
571.95	1.896
572.14	1.911
572.34	1.904
572.53	1.919
572.73	1.916
572.92	1.921
573.12	1.926
573.31	1.922
573.51	1.930
573.70	1.938
573.90	1.942
574.10	1.943
574.29	1.948
574.49	1.957
574.68	1.945
574.88	1.941
575.07	1.939
575.27	1.943
575.46	1.936
575.66	1.950
575.85	1.941
576.05	1.942
576.24	1.947
576.44	1.925
576.63	1.919
576.83	1.930
577.02	1.939
577.22	1.946
577.41	1.944
577.61	1.946
577.80	1.931
578.00	1.927
578.19	1.940
578.39	1.942
578.58	1.949
578.78	1.965
578.97	1.963
579.17	1.963
579.36	1.949
579.56	1.961
579.75	1.962
579.95	1.971
580.14	1.974
580.34	1.974
580.53	1.984
580.73	1.992
580.92	1.979
581.12	1.979
581.31	1.981
581.51	1.989
581.70	1.989
581.89	2.002
582.09	2.001
582.28	2.005
582.48	2.019
582.67	2.017
582.87	2.021
583.06	2.026
583.26	2.021
583.45	2.043
583.65	2.048
583.84	2.045
584.04	2.029
584.23	2.029
584.43	2.028
584.62	2.011
584.81	2.017
585.01	2.010
585.20	2.006
585.40	2.013
585.59	1.998
585.79	2.005
585.98	2.014
586.18	2.036
586.37	2.033
586.56	2.040
586.76	2.036
586.95	2.033
587.15	2.047
587.34	2.062
587.54	2.067
587.73	2.071
587.92	2.063
588.12	2.060
588.31	2.057
588.51	2.067
588.70	2.072
588.90	2.078
589.09	2.082
589.28	2.086
589.48	2.089
589.67	2.081
589.87	2.071
590.06	2.083
590.25	2.092
590.45	2.103
590.64	2.120
590.84	2.123
591.03	2.128
591.23	2.128
591.42	2.130
591.61	2.115
591.81	2.118
592.00	2.131
592.20	2.140
592.39	2.118
592.58	2.106
592.78	2.084
592.97	2.086
593.17	2.097
593.36	2.100
593.55	2.098
593.75	2.114
593.94	2.126
594.13	2.124
594.33	2.115
594.52	2.110
594.72	2.122
594.91	2.127
595.10	2.136
595.30	2.112
595.49	2.120
595.68	2.124
595.88	2.142
596.07	2.140
596.27	2.136
596.46	2.124
596.65	2.136
596.85	2.120
597.04	2.139
597.23	2.142
597.43	2.161
597.62	2.157
597.81	2.154
598.01	2.146
598.20	2.152
598.40	2.164
598.59	2.182
598.78	2.197
598.98	2.223
599.17	2.202
599.36	2.186
599.56	2.200
599.75	2.196
599.94	2.212
600.14	2.206
600.33	2.229
600.52	2.223
600.72	2.244
600.91	2.243
601.10	2.222
601.30	2.225
601.49	2.235
601.68	2.229
601.88	2.230
602.07	2.215
602.26	2.213
602.46	2.202
602.65	2.211
602.84	2.215
603.04	2.226
603.23	2.237
603.42	2.249
603.62	2.264
603.81	2.260
604.00	2.267
604.20	2.265
604.39	2.273
604.58	2.274
604.77	2.276
604.97	2.272
605.16	2.261
605.35	2.269
605.55	2.273
605.74	2.256
605.93	2.280
606.13	2.294
606.32	2.309
606.51	2.317
606.70	2.329
606.90	2.344
607.09	2.361
607.28	2.383
607.48	2.386
607.67	2.370
607.86	2.372
608.05	2.364
608.25	2.346
608.44	2.348
608.63	2.352
608.83	2.352
609.02	2.350
609.21	2.329
609.40	2.339
609.60	2.349
609.79	2.364
609.98	2.369
610.17	2.375
610.37	2.378
610.56	2.387
610.75	2.375
610.95	2.366
611.14	2.361
611.33	2.376
611.52	2.355
611.72	2.349
611.91	2.355
612.10	2.366
612.29	2.356
612.49	2.368
612.68	2.356
612.87	2.381
613.06	2.378
613.26	2.394
613.45	2.385
613.64	2.393
613.83	2.386
614.03	2.376
614.22	2.372
614.41	2.374
614.60	2.371
614.79	2.380
614.99	2.376
615.18	2.387
615.37	2.379
615.56	2.379
615.76	2.410
615.95	2.417
616.14	2.414
616.33	2.420
616.53	2.425
616.72	2.433
616.91	2.438
617.10	2.427
617.29	2.418
617.49	2.406
617.68	2.420
617.87	2.387
618.06	2.407
618.25	2.416
618.45	2.422
618.64	2.415
618.83	2.426
619.02	2.437
619.21	2.457
619.41	2.463
619.60	2.491
619.79	2.478
619.98	2.503
620.17	2.491
620.37	2.504
620.56	2.508
620.75	2.504
620.94	2.507
621.13	2.500
621.33	2.481
621.52	2.491
621.71	2.486
621.90	2.500
622.09	2.476
622.28	2.497
622.48	2.482
622.67	2.485
622.86	2.497
623.05	2.499
623.24	2.500
623.44	2.532
623.63	2.538
623.82	2.546
624.01	2.546
624.20	2.552
624.39	2.542
624.59	2.559
624.78	2.569
624.97	2.593
625.16	2.574
625.35	2.579
625.54	2.572
625.73	2.562
625.93	2.553
626.12	2.562
626.31	2.575
626.50	2.571
626.69	2.564
626.88	2.572
627.07	2.568
627.27	2.585
627.46	2.588
627.65	2.596
627.84	2.598
628.03	2.596
628.22	2.593
628.41	2.597
628.61	2.609
628.80	2.624
628.99	2.620
629.18	2.608
629.37	2.605
629.56	2.609
629.75	2.618
629.94	2.615
630.14	2.637
630.33	2.642
630.52	2.652
630.71	2.630
630.90	2.637
631.09	2.618
631.28	2.630
631.47	2.633
631.66	2.633
631.86	2.623
632.05	2.636
632.24	2.624
632.43	2.618
632.62	2.603
632.81	2.619
633.00	2.632
633.19	2.646
633.38	2.651
633.57	2.645
633.77	2.630
633.96	2.653
634.15	2.660
634.34	2.672
634.53	2.684
634.72	2.679
634.91	2.674
635.10	2.660
635.29	2.681
635.48	2.705
635.67	2.724
635.86	2.749
636.05	2.733
636.25	2.748
636.44	2.750
636.63	2.769
636.82	2.804
637.01	2.846
637.20	2.857
637.39	2.844
637.58	2.820
637.77	2.823
637.96	2.842
638.15	2.859
638.34	2.857
638.53	2.878
638.72	2.860
638.91	2.855
639.10	2.864
639.30	2.847
639.49	2.858
639.68	2.873
639.87	2.863
640.06	2.846
640.25	2.839
640.44	2.833
640.63	2.806
640.82	2.808
641.01	2.826
641.20	2.786
641.39	2.801
641.58	2.824
641.77	2.839
641.96	2.866
642.15	2.883
642.34	2.907
642.53	2.927
642.72	2.928
642.91	2.929
643.10	2.904
643.29	2.937
643.48	2.950
643.67	2.912
643.86	2.918
644.05	2.930
644.24	2.938
644.43	2.939
644.62	2.960
644.81	2.971
645.00	2.988
645.19	3.003
645.38	2.986
645.57	2.983
645.76	3.012
645.95	3.020
646.14	3.012
646.33	3.013
646.52	2.999
646.71	3.002
646.90	3.026
647.09	3.036
647.28	3.040
647.47	3.047
647.66	3.053
647.85	3.054
648.04	3.026
648.23	3.040
648.42	3.023
648.61	3.010
648.80	2.981
648.99	2.955
649.18	2.970
649.37	2.977
649.56	2.984
649.75	2.959
649.94	2.948
650.13	2.983
650.32	2.967
650.51	2.965
650.70	2.969
650.89	2.947
651.08	2.950
651.27	2.937
651.46	2.925
651.65	2.940
651.83	2.969
652.02	2.986
652.21	2.950
652.40	2.955
652.59	2.983
652.78	3.000
652.97	3.049
653.16	3.055
653.35	3.046
653.54	3.061
653.73	3.082
653.92	3.054
654.11	3.065
654.30	3.089
654.49	3.096
654.68	3.086
654.86	3.103
655.05	3.086
655.24	3.085
655.43	3.064
655.62	3.057
655.81	3.015
656.00	3.049
656.19	3.031
656.38	3.042
656.57	3.051
656.76	3.033
656.95	3.020
657.13	3.024
657.32	3.055
657.51	3.084
657.70	3.095
657.89	3.135
658.08	3.134
658.27	3.163
658.46	3.149
658.65	3.152
658.84	3.167
659.02	3.190
659.21	3.220
659.40	3.226
659.59	3.270
659.78	3.271
659.97	3.257
660.16	3.272
660.35	3.250
660.54	3.274
660.72	3.286
660.91	3.297
661.10	3.285
661.29	3.289
661.48	3.276
661.67	3.258
661.86	3.278
662.05	3.280
662.23	3.280
662.42	3.308
662.61	3.285
662.80	3.262
662.99	3.294
663.18	3.312
663.37	3.295
663.56	3.300
663.74	3.273
663.93	3.278
664.12	3.295
664.31	3.304
664.50	3.302
664.69	3.335
664.87	3.362
665.06	3.345
665.25	3.341
665.44	3.345
665.63	3.363
665.82	3.362
666.01	3.363
666.19	3.350
666.38	3.364
666.57	3.361
666.76	3.353
666.95	3.347
667.14	3.362
667.32	3.363
667.51	3.377
667.70	3.372
667.89	3.386
668.08	3.397
668.26	3.429
668.45	3.387
668.64	3.382
668.83	3.392
669.02	3.414
669.21	3.393
669.39	3.403
669.58	3.411
669.77	3.420
669.96	3.440
670.15	3.437
670.33	3.395
670.52	3.400
670.71	3.398
670.90	3.394
671.09	3.360
671.27	3.369
671.46	3.352
671.65	3.356
671.84	3.365
672.03	3.377
672.21	3.404
672.40	3.430
672.59	3.457
672.78	3.465
672.96	3.450
673.15	3.488
673.34	3.505
673.53	3.491
673.72	3.488
673.90	3.492
674.09	3.492
674.28	3.462
674.47	3.495
674.65	3.492
674.84	3.507
675.03	3.544
675.22	3.532
675.41	3.558
675.59	3.575
675.78	3.567
675.97	3.580
676.16	3.580
676.34	3.599
676.53	3.574
676.72	3.597
676.91	3.593
677.09	3.587
677.28	3.608
677.47	3.606
677.66	3.642
677.84	3.641
678.03	3.635
678.22	3.655
678.41	3.642
678.59	3.664
678.78	3.633
678.97	3.661
679.15	3.659
679.34	3.663
679.53	3.660
679.72	3.654
679.90	3.652
680.09	3.664
680.28	3.669
680.47	3.686
680.65	3.677
680.84	3.704
681.03	3.695
681.21	3.724
681.40	3.712
681.59	3.715
681.78	3.722
681.96	3.762
682.15	3.756
682.34	3.758
682.52	3.725
682.71	3.709
682.90	3.741
683.08	3.767
683.27	3.753
683.46	3.750
683.65	3.761
683.83	3.763
684.02	3.738
684.21	3.755
684.39	3.749
684.58	3.796
684.77	3.832
684.95	3.800
685.14	3.779
685.33	3.787
685.51	3.799
685.70	3.785
685.89	3.780
686.07	3.827
686.26	3.802
686.45	3.813
686.63	3.797
686.82	3.819
687.01	3.847
687.20	3.846
687.38	3.829
687.57	3.852
687.75	3.886
687.94	3.916
688.13	3.899
688.31	3.908
688.50	3.907
688.69	3.911
688.87	3.900
689.06	3.896
689.25	3.922
689.43	3.937
689.62	3.931
689.81	3.947
689.99	3.936
690.18	3.947
690.37	3.960
690.55	3.974
690.74	4.002
690.93	4.005
691.11	4.004
691.30	3.997
691.48	4.016
691.67	4.019
691.86	3.983
692.04	4.008
692.23	4.018
692.42	4.055
692.60	4.066
692.79	4.087
692.97	4.105
693.16	4.122
693.35	4.135
693.53	4.151
693.72	4.155
693.90	4.181
694.09	4.152
694.28	4.165
694.46	4.143
694.65	4.124
694.83	4.136
695.02	4.119
695.21	4.155
695.39	4.193
695.58	4.217
695.76	4.242
695.95	4.243
696.14	4.289
696.32	4.269
696.51	4.282
696.69	4.317
696.88	4.331
697.07	4.338
697.25	4.329
697.44	4.313
697.62	4.304
697.81	4.300
697.99	4.296
698.18	4.267
698.37	4.268
698.55	4.282
698.74	4.285
698.92	4.272
699.11	4.283
699.29	4.286
699.48	4.288
699.67	4.285
699.85	4.274
700.04	4.287
700.22	4.314
700.41	4.320
700.59	4.321
700.78	4.302
700.96	4.297
701.15	4.278
701.34	4.236
701.52	4.241
701.71	4.251
701.89	4.330
702.08	4.341
702.26	4.348
702.45	4.385
702.63	4.371
702.82	4.393
703.00	4.419
703.19	4.460
703.38	4.543
703.56	4.540
703.75	4.553
703.93	4.498
704.12	4.493
704.30	4.473
704.49	4.490
704.67	4.510
704.86	4.501
705.04	4.493
705.23	4.520
705.41	4.472
705.60	4.490
705.78	4.482
705.97	4.501
706.15	4.503
706.34	4.551
706.52	4.567
706.71	4.576
706.89	4.577
707.08	4.576
707.26	4.579
707.45	4.607
707.63	4.628
707.82	4.670
708.00	4.666
708.19	4.650
708.37	4.648
708.56	4.617
708.74	4.612
708.93	4.642
709.11	4.646
709.30	4.651
709.48	4.656
709.67	4.660
709.85	4.625
710.04	4.653
710.22	4.706
710.41	4.676
710.59	4.684
710.77	4.691
710.96	4.681
711.14	4.674
711.33	4.695
711.51	4.673
711.70	4.636
711.88	4.651
712.07	4.599
712.25	4.548
712.44	4.559
712.62	4.566
712.80	4.580
712.99	4.578
713.17	4.591
713.36	4.555
713.54	4.631
713.73	4.680
713.91	4.699
714.10	4.716
714.28	4.750
714.46	4.797
714.65	4.803
714.83	4.848
715.02	4.872
715.20	4.903
715.39	4.909
715.57	4.870
715.75	4.871
715.94	4.869
716.12	4.907
716.31	4.911
716.49	4.882
716.68	4.852
716.86	4.848
717.04	4.841
717.23	4.895
717.41	4.947
717.60	4.956
717.78	4.941
717.96	4.914
718.15	4.908
718.33	4.895
718.52	4.938
718.70	4.997
718.88	4.937
719.07	4.968
719.25	4.893
719.44	4.862
719.62	4.925
719.80	4.953
719.99	4.990
720.17	4.970
720.36	4.966
720.54	4.935
720.72	4.943
720.91	4.981
721.09	4.965
721.27	4.992
721.46	4.986
721.64	4.924
721.83	4.914
722.01	4.879
722.19	4.940
722.38	5.002
722.56	4.990
722.74	4.941
722.93	4.950
723.11	4.983
723.30	4.978
723.48	5.029
723.66	5.070
723.85	5.115
724.03	5.150
724.21	5.176
724.40	5.169
724.58	5.239
724.76	5.240
724.95	5.251
725.13	5.302
725.31	5.326
725.50	5.281
725.68	5.255
725.86	5.239
726.05	5.278
726.23	5.270
726.41	5.294
726.60	5.237
726.78	5.269
726.96	5.255
727.15	5.186
727.33	5.247
727.51	5.319
727.70	5.326
727.88	5.349
728.06	5.386
728.25	5.351
728.43	5.328
728.61	5.398
728.80	5.402
728.98	5.442
729.16	5.448
729.34	5.395
729.53	5.381
729.71	5.403
729.89	5.404
730.08	5.352
730.26	5.400
730.44	5.409
730.63	5.347
730.81	5.378
730.99	5.418
731.17	5.501
731.36	5.527
731.54	5.512
731.72	5.514
731.91	5.532
732.09	5.532
732.27	5.552
732.45	5.573
732.64	5.641
732.82	5.622
733.00	5.612
733.19	5.558
733.37	5.552
733.55	5.558
733.73	5.571
733.92	5.540
734.10	5.566
734.28	5.540
734.46	5.530
734.65	5.540
734.83	5.611
735.01	5.604
735.19	5.598
735.38	5.617
735.56	5.622
735.74	5.632
735.92	5.628
736.11	5.645
736.29	5.676
736.47	5.687
736.65	5.666
736.84	5.684
737.02	5.715
737.20	5.776
737.38	5.806
737.57	5.820
737.75	5.793
737.93	5.835
738.11	5.848
738.30	5.867
738.48	5.889
738.66	5.866
738.84	5.816
739.02	5.751
739.21	5.729
739.39	5.680
739.57	5.722
739.75	5.733
739.93	5.772
740.12	5.762
740.30	5.776
740.48	5.746
740.66	5.774
740.85	5.784
741.03	5.851
741.21	5.851
741.39	5.916
741.57	5.885
741.76	5.902
741.94	5.844
742.12	5.863
742.30	5.854
742.48	5.871
742.66	5.835
742.85	5.877
743.03	5.883
743.21	5.904
743.39	5.878
743.57	5.902
743.76	5.928
743.94	5.987
744.12	5.944
744.30	5.944
744.48	5.983
744.66	6.038
744.85	5.997
745.03	5.980
745.21	6.019
745.39	6.036
745.57	6.079
745.75	6.048
745.94	6.026
746.12	6.060
746.30	6.081
746.48	6.078
746.66	6.116
746.84	6.140
747.02	6.161
747.21	6.138
747.39	6.116
747.57	6.148
747.75	6.173
747.93	6.257
748.11	6.317
748.29	6.325
748.48	6.307
748.66	6.336
748.84	6.338
749.02	6.388
749.20	6.448
749.38	6.457
749.56	6.364
749.75	6.393
749.93	6.241
750.11	6.219
750.29	6.205
750.47	6.273
750.65	6.198
750.83	6.198
751.01	6.157
751.19	6.152
751.38	6.219
751.56	6.253
751.74	6.208
751.92	6.333
752.10	6.352
752.28	6.379
752.46	6.335
752.64	6.425
752.82	6.440
753.00	6.446
753.19	6.418
753.37	6.365
753.55	6.374
753.73	6.417
753.91	6.394
754.09	6.303
754.27	6.234
754.45	6.282
754.63	6.274
754.81	6.236
754.99	6.209
755.17	6.245
755.36	6.284
755.54	6.345
755.72	6.415
755.90	6.456
756.08	6.496
756.26	6.554
756.44	6.542
756.62	6.516
756.80	6.620
756.98	6.604
757.16	6.560
757.34	6.567
757.52	6.581
757.70	6.526
757.88	6.498
758.06	6.557
758.24	6.536
758.42	6.519
758.61	6.543
758.79	6.444
758.97	6.451
759.15	6.487
759.33	6.501
759.51	6.528
759.69	6.596
759.87	6.648
760.05	6.646
760.23	6.679
760.41	6.716
760.59	6.727
760.77	6.813
760.95	6.878
761.13	6.894
761.31	6.905
761.49	6.872
761.67	6.827
761.85	6.800
762.03	6.848
762.21	6.883
762.39	6.882
762.57	6.901
762.75	6.901
762.93	6.886
763.11	6.864
763.29	6.853
763.47	6.817
763.65	6.834
763.83	6.808
764.01	6.790
764.19	6.788
764.37	6.822
764.55	6.784
764.73	6.801
764.91	6.835
765.09	6.871
765.27	6.870
765.45	6.884
765.63	6.879
765.81	6.929
765.99	6.960
766.17	6.955
766.35	6.931
766.53	7.007
766.71	6.996
766.89	7.004
767.07	7.006
767.25	7.026
767.43	7.050
767.61	7.115
767.78	7.151
767.96	7.132
768.14	7.153
768.32	7.208
768.50	7.243
768.68	7.277
768.86	7.285
769.04	7.312
769.22	7.359
769.40	7.387
769.58	7.347
769.76	7.307
769.94	7.380
770.12	7.388
770.30	7.344
770.48	7.249
770.66	7.277
770.84	7.240
771.01	7.205
771.19	7.160
771.37	7.213
771.55	7.254
771.73	7.227
771.91	7.235
772.09	7.282
772.27	7.344
772.45	7.455
772.63	7.449
772.81	7.495
772.99	7.449
773.16	7.416
773.34	7.421
773.52	7.468
773.70	7.481
773.88	7.468
774.06	7.474
774.24	7.448
774.42	7.392
774.60	7.366
774.78	7.265
774.95	7.298
775.13	7.414
775.31	7.369
775.49	7.362
775.67	7.440
775.85	7.456
776.03	7.512
776.21	7.490
776.38	7.522
776.56	7.625
776.74	7.702
776.92	7.726
777.10	7.672
777.28	7.708
777.46	7.660
777.64	7.671
777.81	7.630
777.99	7.590
778.17	7.609
778.35	7.605
778.53	7.551
778.71	7.619
778.89	7.650
779.06	7.659
779.24	7.638
779.42	7.615
779.60	7.632
779.78	7.692
779.96	7.723
780.13	7.736
780.31	7.847
780.49	7.796
780.67	7.689
780.85	7.675
781.03	7.707
781.20	7.736
781.38	7.830
781.56	7.883
781.74	7.893
781.92	7.807
782.10	7.851
782.27	7.758
782.45	7.781
782.63	7.828
782.81	7.952
782.99	7.908
783.17	7.994
783.34	7.913
783.52	7.819
783.70	7.746
783.88	7.826
784.06	7.849
784.23	7.829
784.41	7.850
784.59	7.935
784.77	7.877
784.95	8.044
785.12	7.902
785.30	8.019
785.48	8.119
785.66	8.134
785.83	8.066
786.01	8.129
786.19	8.156
786.37	8.127
786.55	8.070
786.72	8.097
786.90	8.082
787.08	8.198
787.26	8.174
787.43	8.170
787.61	8.173
787.79	8.222
787.97	8.193
788.15	8.201
788.32	8.222
788.50	8.335
788.68	8.291
788.86	8.247
789.03	8.200
789.21	8.201
789.39	8.194
789.57	8.259
789.74	8.315
789.92	8.308
790.10	8.347
790.28	8.464
790.45	8.474
790.63	8.657
790.81	8.674
790.99	8.671
791.16	8.662
791.34	8.660
791.52	8.654
791.69	8.593
791.87	8.521
792.05	8.520
792.23	8.458
792.40	8.350
792.58	8.102
792.76	8.132
792.94	8.139
793.11	8.275
793.29	8.280
793.47	8.398
793.64	8.421
793.82	8.618
794.00	8.530
794.18	8.496
794.35	8.522
794.53	8.621
794.71	8.499
794.88	8.596
795.06	8.493
795.24	8.488
795.41	8.459
795.59	8.590
795.77	8.490
795.94	8.527
796.12	8.623
796.30	8.618
796.48	8.612
796.65	8.807
796.83	8.775
797.01	8.788
797.18	8.807
797.36	8.802
797.54	8.724
797.71	8.794
797.89	8.774
798.07	8.732
798.24	8.910
798.42	8.862
798.60	8.815
798.77	8.875
798.95	8.864
799.13	8.853
799.30	8.745
799.48	8.761
799.66	8.728
799.83	8.818
800.01	8.858
800.18	8.726
800.36	8.815
800.54	8.790
800.71	8.647
800.89	8.620
801.07	8.758
801.24	8.991
801.42	9.137
801.60	9.203
801.77	9.159
801.95	9.067
802.12	9.073
802.30	9.133
802.48	9.123
802.65	9.263
802.83	9.374
803.01	9.280
803.18	9.105
803.36	9.066
803.53	9.090
803.71	9.168
803.89	9.182
804.06	9.246
804.24	9.262
804.41	9.371
804.59	9.442
804.77	9.588
804.94	9.670
805.12	9.654
805.29	9.584
805.47	9.451
805.65	9.411
805.82	9.489
806.00	9.578
806.17	9.581
806.35	9.529
806.53	9.532
806.70	9.354
806.88	9.357
807.05	9.456
807.23	9.459
807.40	9.536
807.58	9.662
807.76	9.753
807.93	9.631
808.11	9.628
808.28	9.649
808.46	9.670
808.63	9.843
808.81	9.805
808.99	9.863
809.16	9.880
809.34	9.873
809.51	9.711
809.69	9.733
809.86	9.674
810.04	9.589
810.21	9.522
810.39	9.427
810.57	9.246
810.74	9.121
810.92	9.038
811.09	8.958
811.27	8.958
811.44	9.117
811.62	9.005
811.79	9.119
811.97	8.987
812.14	8.982
812.32	9.103
812.49	9.220
812.67	9.404
812.84	9.454
813.02	9.551
813.19	9.570
813.37	9.502
813.55	9.484
813.72	9.530
813.90	9.808
814.07	9.796
814.25	10.013
814.42	10.038
814.60	10.043
814.77	9.897
814.95	9.969
815.12	9.981
815.30	10.045
815.47	10.168
815.65	10.127
815.82	10.173
816.00	10.405
816.17	10.206
816.35	10.082
816.52	10.170
816.69	10.456
816.87	10.499
817.04	10.540
817.22	10.461
817.39	10.480
817.57	10.449
817.74	10.364
817.92	10.302
818.09	10.211
818.27	10.183
818.44	10.129
818.62	9.947
818.79	9.889
818.97	9.931
819.14	9.958
819.32	9.869
819.49	9.965
819.66	9.978
819.84	9.899
820.01	9.965
820.19	10.057
820.36	9.949
820.54	10.107
820.71	10.097
820.89	10.089
821.06	10.184
821.23	10.243
821.41	10.189
821.58	10.130
821.76	10.029
821.93	9.986
822.11	9.930
822.28	9.912
822.45	9.827
822.63	9.819
822.80	9.808
822.98	9.792
823.15	9.799
823.33	9.818
823.50	9.838
823.67	9.895
823.85	9.932
824.02	9.989
824.20	10.067
824.37	10.193
824.54	10.283
824.72	10.395
824.89	10.469
825.07	10.519
825.24	10.561
825.41	10.626
825.59	10.697
825.76	10.741
825.94	10.842
826.11	10.888
826.28	10.914
826.46	10.924
826.63	10.873
826.80	10.877
826.98	10.823
827.15	10.818
827.33	10.787
827.50	10.724
827.67	10.732
827.85	10.692
828.02	10.666
828.19	10.671
828.37	10.671
828.54	10.701
828.72	10.760
828.89	10.854
829.06	10.875
829.24	10.964
829.41	11.078
829.58	11.140
829.76	11.176
829.93	11.280
830.10	11.298
830.28	11.381
830.45	11.422
830.62	11.422
830.80	11.424
830.97	11.478
831.14	11.514
831.32	11.523
831.49	11.491
831.66	11.456
831.84	11.360
832.01	11.325
832.18	11.302
832.36	11.296
832.53	11.284
832.70	11.280
832.88	11.223
833.05	11.179
833.22	11.115
833.40	11.064
833.57	11.085
833.74	11.052
833.91	11.016
834.09	10.962
834.26	10.940
834.43	10.944
834.61	10.940
834.78	10.956
834.95	10.951
835.13	10.938
835.30	10.945
835.47	10.985
835.64	11.023
835.82	11.111
835.99	11.172
836.16	11.300
836.34	11.385
836.51	11.478
836.68	11.478
836.85	11.447
837.03	11.556
837.20	11.679
837.37	11.630
837.54	11.740
837.72	11.660
837.89	11.724
838.06	11.597
838.24	11.459
838.41	11.477
838.58	11.660
838.75	11.653
838.93	11.718
839.10	11.630
839.27	11.825
839.44	11.667
839.62	11.910
839.79	11.852
839.96	11.896
840.13	11.873
840.31	11.696
840.48	11.648
840.65	11.793
840.82	11.782
840.99	11.930
841.17	11.826
841.34	12.031
841.51	11.995
841.68	12.048
841.86	12.158
842.03	12.367
842.20	12.509
842.37	12.623
842.55	12.599
842.72	12.530
842.89	12.265
843.06	12.308
843.23	11.898
843.41	11.863
843.58	11.865
843.75	12.103
843.92	12.125
844.09	12.328
844.27	11.983
844.44	12.260
844.61	12.253
844.78	12.718
844.95	12.734
845.13	13.220
845.30	13.223
845.47	13.237
845.64	13.012
845.81	12.859
845.98	12.471
846.16	12.775
846.33	12.749
846.50	12.999
846.67	12.884
846.84	13.133
847.02	12.918
847.19	12.950
847.36	12.675
847.53	12.422
847.70	12.407
847.87	12.970
848.04	13.219
848.22	13.186
848.39	12.979
848.56	13.320
848.73	12.970
848.90	13.245
849.07	13.315
849.25	13.606
849.42	13.654
849.59	13.514
849.76	13.200
849.93	13.126
850.10	13.008
850.27	12.928
850.45	12.945
850.62	13.246
850.79	13.280
850.96	13.311
851.13	13.247
851.30	13.174
851.47	13.186
851.64	12.955
851.82	12.833
851.99	12.870
852.16	13.095
852.33	12.281
852.50	12.400
852.67	12.509
852.84	12.450
853.01	12.476
853.18	12.577
853.35	12.473
853.53	12.675
853.70	12.776
853.87	12.604
854.04	12.856
854.21	13.386
854.38	13.134
854.55	12.720
854.72	12.114
854.89	12.012
855.06	12.240
855.23	12.316
855.41	11.985
855.58	11.855
855.75	12.088
855.92	11.788
856.09	11.891
856.26	12.059
856.43	11.974
856.60	12.476
856.77	12.438
856.94	12.193
857.11	12.510
857.28	12.886
857.45	12.977
857.62	12.957
857.80	12.938
857.97	12.456
858.14	12.448
858.31	12.476
858.48	12.805
858.65	12.971
858.82	13.065
858.99	12.793
859.16	12.750
859.33	13.092
859.50	13.040
859.67	13.498
859.84	13.839
860.01	13.717
860.18	13.760
860.35	14.021
860.52	14.375
860.69	14.112
860.86	14.361
861.03	14.208
861.20	13.744
861.37	13.788
861.54	13.726
861.71	13.269
861.88	13.463
862.05	13.730
862.22	13.158
862.39	12.866
862.56	13.271
862.73	13.192
862.90	13.200
863.07	13.282
863.24	12.918
863.41	12.320
863.58	12.773
863.75	12.471
863.92	12.188
864.09	12.398
864.26	12.733
864.43	12.247
864.60	12.509
864.77	12.990
864.94	13.427
865.11	13.731
865.28	14.211
865.45	14.541
865.62	14.741
865.79	15.128
865.96	14.892
866.13	14.676
866.30	15.157
866.47	14.939
866.64	14.318
866.81	13.784
866.98	13.969
867.15	14.175
867.32	13.614
867.49	13.534
867.66	13.216
867.82	13.111
867.99	13.165
868.16	13.059
868.33	13.198
868.50	13.397
868.67	13.858
868.84	14.079
869.01	13.969
869.18	14.179
869.35	14.510
869.52	14.835
869.69	15.478
869.86	15.593
870.03	15.646
870.19	15.327
870.36	15.636
870.53	15.297
870.70	14.942
870.87	15.072
871.04	15.095
871.21	14.731
871.38	14.905
871.55	14.469
871.72	14.512
871.89	14.204
872.05	14.251
872.22	13.785
872.39	13.941
872.56	13.997
872.73	13.708
872.90	13.792
873.07	14.006
873.24	13.684
873.41	13.764
873.57	13.304
873.74	13.750
873.91	13.870
874.08	14.187
874.25	14.227
874.42	14.113
874.59	14.575
874.76	14.569
874.92	14.577
875.09	14.722
875.26	14.939
875.43	15.412
875.60	15.035
875.77	15.192
875.94	15.236
876.11	15.359
876.27	15.510
876.44	15.170
876.61	15.227
876.78	15.251
876.95	14.877
877.12	14.568
877.28	14.542
877.45	14.605
877.62	14.772
877.79	14.955
877.96	15.056
878.13	14.920
878.29	15.073
878.46	15.137
878.63	15.133
878.80	15.319
878.97	15.760
879.14	15.759
879.30	16.054
879.47	16.040
879.64	15.848
879.81	15.681
879.98	15.785
880.14	15.627
880.31	15.452
880.48	15.537
880.65	15.655
880.82	15.447
880.98	15.293
881.15	15.124
881.32	14.926
881.49	14.827
881.66	14.690
881.82	14.596
881.99	14.560
882.16	14.518
882.33	14.464
882.50	14.440
882.66	14.415
882.83	14.407
883.00	14.421
883.17	14.490
883.33	14.524
883.50	14.642
883.67	14.759
883.84	14.855
884.01	14.981
884.17	15.066
884.34	15.110
884.51	15.218
884.68	15.302
884.84	15.372
885.01	15.423
885.18	15.535
885.35	15.557
885.51	15.570
885.68	15.593
885.85	15.595
886.02	15.648
886.18	15.714
886.35	15.720
886.52	15.767
886.69	15.836
886.85	15.890
887.02	15.820
887.19	15.941
887.35	15.963
887.52	15.999
887.69	16.011
887.86	16.215
888.02	16.123
888.19	16.311
888.36	16.405
888.53	15.715
888.69	19.018
888.86	14.925
889.03	17.983
>>>>>End Spectral Data<<<<<
