OOIBase32 Version 2.0.6.5 Data File
++++++++++++++++++++++++++++++++++++
Date: 11-17-2016, 11:07:53
User: Valued Ocean Optics Customer
Spectrometer Serial Number: USB4C01507
Spectrometer Channel: Master
Integration Time (msec): 49
Spectra Averaged: 25
Boxcar Smoothing: 5
Correct for Electrical Dark: Enabled
Time Normalized: Disabled
Dual-beam Reference: Disabled
Reference Channel: Master
Temperature: Not acquired
Spectrometer Type: S4000
ADC Type: USB4000
Number of Pixels in File: 3648
Graph Title: 
>>>>>Begin Spectral Data<<<<<
178.53	1573.617
178.74	2057.658
178.96	3.012
179.18	11.297
179.39	499.552
179.61	-15.083
179.82	-33.798
180.04	118.398
180.25	136.636
180.47	-27.204
180.69	204.366
180.90	253.402
181.12	-209.021
181.33	121.533
181.55	49.868
181.76	-3888.807
181.98	121.302
182.20	74.322
182.41	19.001
182.63	313.637
182.84	18.126
183.06	3.101
183.27	10.401
183.49	7.536
183.71	3.376
183.92	-11.885
184.14	-20.899
184.35	-21.571
184.57	-24.328
184.78	-12.482
185.00	-3.778
185.21	-9.269
185.43	8.410
185.65	11.185
185.86	9.721
186.08	9.973
186.29	22.656
186.51	35.379
186.72	32.476
186.94	26.612
187.15	20.793
187.37	18.163
187.58	17.814
187.80	13.340
188.02	15.545
188.23	13.584
188.45	14.353
188.66	10.976
188.88	5.649
189.09	4.043
189.31	2.660
189.52	5.774
189.74	1.475
189.95	10.095
190.17	12.490
190.38	6.802
190.60	13.102
190.82	16.106
191.03	16.057
191.25	15.413
191.46	18.802
191.68	18.083
191.89	16.998
192.11	20.649
192.32	15.242
192.54	6.700
192.75	12.824
192.97	6.822
193.18	5.763
193.40	3.573
193.61	3.810
193.83	13.315
194.04	10.450
194.26	15.485
194.48	12.277
194.69	12.642
194.91	13.146
195.12	3.939
195.34	11.487
195.55	15.355
195.77	8.027
195.98	3.599
196.20	-2.875
196.41	-3.444
196.63	-6.754
196.84	-7.934
197.06	-6.472
197.27	-1.696
197.49	-0.108
197.70	-7.250
197.92	-18.566
198.13	-4.724
198.35	-5.651
198.56	-12.984
198.78	-10.049
198.99	-9.244
199.21	-6.559
199.42	-9.265
199.64	-10.042
199.85	-9.737
200.07	-5.909
200.28	2.241
200.50	-2.918
200.71	1.546
200.93	10.392
201.14	9.665
201.36	9.308
201.57	11.598
201.79	8.132
202.00	7.144
202.22	9.759
202.43	9.298
202.65	6.885
202.86	6.549
203.08	5.610
203.29	1.847
203.51	0.687
203.72	1.259
203.94	0.861
204.15	4.392
204.37	7.854
204.58	6.463
204.80	5.614
205.01	9.285
205.22	10.534
205.44	11.352
205.65	11.079
205.87	9.751
206.08	10.481
206.30	10.587
206.51	8.718
206.73	4.520
206.94	0.345
207.16	-0.389
207.37	-1.802
207.59	-7.109
207.80	-8.980
208.02	-8.318
208.23	-4.431
208.45	-3.927
208.66	-5.187
208.88	-2.384
209.09	-1.891
209.30	-0.588
209.52	0.543
209.73	2.524
209.95	8.629
210.16	6.619
210.38	8.914
210.59	9.003
210.81	6.498
211.02	7.546
211.24	7.191
211.45	5.848
211.66	10.805
211.88	10.499
212.09	7.403
212.31	5.163
212.52	7.579
212.74	2.726
212.95	3.093
213.17	4.589
213.38	5.883
213.60	5.333
213.81	9.267
214.02	7.634
214.24	7.318
214.45	4.673
214.67	5.052
214.88	3.577
215.10	5.623
215.31	6.052
215.53	5.317
215.74	4.175
215.95	6.656
216.17	2.772
216.38	0.851
216.60	1.037
216.81	4.560
217.03	4.946
217.24	6.372
217.45	6.096
217.67	7.378
217.88	8.085
218.10	7.904
218.31	3.850
218.53	5.471
218.74	5.465
218.95	2.455
219.17	-0.428
219.38	-0.359
219.60	1.976
219.81	2.651
220.03	1.214
220.24	1.700
220.45	0.175
220.67	2.227
220.88	2.885
221.10	3.419
221.31	5.501
221.53	6.798
221.74	6.138
221.95	4.119
222.17	2.877
222.38	2.866
222.60	2.154
222.81	2.631
223.02	2.705
223.24	2.202
223.45	2.669
223.67	2.693
223.88	1.895
224.09	2.525
224.31	3.659
224.52	4.564
224.74	3.551
224.95	3.832
225.16	4.093
225.38	3.584
225.59	3.635
225.81	3.461
226.02	2.968
226.23	2.755
226.45	2.611
226.66	1.977
226.88	2.054
227.09	2.675
227.30	2.589
227.52	2.554
227.73	2.546
227.95	2.619
228.16	2.553
228.37	2.662
228.59	2.740
228.80	2.776
229.02	2.794
229.23	2.818
229.44	2.800
229.66	2.782
229.87	2.914
230.08	2.968
230.30	2.960
230.51	3.091
230.73	3.090
230.94	3.099
231.15	2.916
231.37	3.001
231.58	3.092
231.80	2.954
232.01	3.084
232.22	2.950
232.44	2.827
232.65	2.783
232.86	2.516
233.08	2.651
233.29	2.746
233.51	3.066
233.72	2.914
233.93	2.785
234.15	2.873
234.36	2.956
234.57	2.915
234.79	3.273
235.00	3.405
235.21	3.773
235.43	3.691
235.64	3.400
235.86	3.388
236.07	3.253
236.28	3.067
236.50	2.938
236.71	3.042
236.92	3.109
237.14	2.931
237.35	2.927
237.56	3.011
237.78	2.928
237.99	3.127
238.20	2.975
238.42	3.246
238.63	3.163
238.84	3.530
239.06	3.298
239.27	3.123
239.48	3.029
239.70	2.999
239.91	2.506
240.13	2.530
240.34	2.686
240.55	2.722
240.77	2.799
240.98	2.878
241.19	2.925
241.41	2.835
241.62	2.854
241.83	2.779
242.05	2.784
242.26	2.875
242.47	2.836
242.69	2.794
242.90	2.755
243.11	2.759
243.33	2.750
243.54	2.562
243.75	2.653
243.97	2.558
244.18	2.638
244.39	2.605
244.61	2.384
244.82	2.542
245.03	2.636
245.24	2.673
245.46	2.701
245.67	2.795
245.88	2.819
246.10	2.731
246.31	2.723
246.52	2.636
246.74	2.618
246.95	2.645
247.16	2.641
247.38	2.601
247.59	2.609
247.80	2.596
248.02	2.594
248.23	2.589
248.44	2.624
248.66	2.654
248.87	2.728
249.08	2.737
249.29	2.804
249.51	2.845
249.72	2.965
249.93	3.073
250.15	3.095
250.36	2.863
250.57	2.806
250.79	2.845
251.00	2.801
251.21	2.830
251.42	2.901
251.64	2.852
251.85	2.858
252.06	2.868
252.28	2.696
252.49	2.608
252.70	2.745
252.91	2.827
253.13	2.814
253.34	2.873
253.55	2.861
253.77	2.783
253.98	2.883
254.19	2.593
254.40	2.465
254.62	2.482
254.83	2.640
255.04	2.573
255.26	2.445
255.47	2.197
255.68	2.108
255.89	2.201
256.11	2.294
256.32	2.176
256.53	2.435
256.75	2.518
256.96	2.696
257.17	2.641
257.38	2.797
257.60	2.905
257.81	3.001
258.02	2.858
258.23	2.750
258.45	2.662
258.66	2.779
258.87	2.653
259.09	2.583
259.30	2.596
259.51	2.598
259.72	2.565
259.94	2.505
260.15	2.486
260.36	2.594
260.57	2.595
260.79	2.579
261.00	2.516
261.21	2.528
261.42	2.574
261.64	2.499
261.85	2.420
262.06	2.318
262.27	2.461
262.49	2.464
262.70	2.342
262.91	2.415
263.12	2.559
263.34	2.549
263.55	2.614
263.76	2.536
263.97	2.667
264.19	2.855
264.40	2.868
264.61	2.742
264.82	2.732
265.04	2.700
265.25	2.540
265.46	2.502
265.67	2.476
265.88	2.444
266.10	2.477
266.31	2.404
266.52	2.344
266.73	2.526
266.95	2.549
267.16	2.619
267.37	2.558
267.58	2.554
267.80	2.578
268.01	2.606
268.22	2.612
268.43	2.679
268.64	2.711
268.86	2.691
269.07	2.523
269.28	2.395
269.49	2.404
269.71	2.466
269.92	2.408
270.13	2.440
270.34	2.416
270.55	2.445
270.77	2.485
270.98	2.447
271.19	2.500
271.40	2.537
271.61	2.510
271.83	2.462
272.04	2.423
272.25	2.548
272.46	2.478
272.68	2.540
272.89	2.534
273.10	2.424
273.31	2.403
273.52	2.414
273.74	2.314
273.95	2.353
274.16	2.348
274.37	2.406
274.58	2.436
274.80	2.451
275.01	2.454
275.22	2.448
275.43	2.501
275.64	2.616
275.86	2.590
276.07	2.681
276.28	2.777
276.49	2.767
276.70	2.776
276.91	2.654
277.13	2.603
277.34	2.542
277.55	2.587
277.76	2.584
277.97	2.417
278.19	2.380
278.40	2.363
278.61	2.279
278.82	2.292
279.03	2.250
279.24	2.290
279.46	2.300
279.67	2.301
279.88	2.120
280.09	2.119
280.30	2.250
280.52	2.269
280.73	2.366
280.94	2.386
281.15	2.405
281.36	2.401
281.57	2.441
281.79	2.515
282.00	2.585
282.21	2.675
282.42	2.668
282.63	2.693
282.84	2.659
283.06	2.590
283.27	2.648
283.48	2.628
283.69	2.519
283.90	2.444
284.11	2.373
284.32	2.266
284.54	2.289
284.75	2.169
284.96	2.082
285.17	2.175
285.38	2.177
285.59	2.113
285.81	2.152
286.02	2.282
286.23	2.279
286.44	2.327
286.65	2.398
286.86	2.360
287.07	2.450
287.29	2.518
287.50	2.488
287.71	2.466
287.92	2.601
288.13	2.558
288.34	2.514
288.55	2.472
288.77	2.468
288.98	2.393
289.19	2.375
289.40	2.446
289.61	2.442
289.82	2.408
290.03	2.386
290.24	2.357
290.46	2.318
290.67	2.274
290.88	2.396
291.09	2.395
291.30	2.443
291.51	2.504
291.72	2.449
291.93	2.505
292.15	2.465
292.36	2.593
292.57	2.559
292.78	2.522
292.99	2.467
293.20	2.423
293.41	2.368
293.62	2.327
293.84	2.424
294.05	2.457
294.26	2.361
294.47	2.426
294.68	2.307
294.89	2.365
295.10	2.407
295.31	2.497
295.52	2.550
295.73	2.480
295.95	2.490
296.16	2.462
296.37	2.513
296.58	2.546
296.79	2.569
297.00	2.572
297.21	2.456
297.42	2.379
297.63	2.363
297.84	2.321
298.06	2.332
298.27	2.297
298.48	2.253
298.69	2.081
298.90	2.015
299.11	1.922
299.32	1.920
299.53	1.973
299.74	2.104
299.95	2.110
300.16	2.095
300.38	2.127
300.59	2.119
300.80	2.159
301.01	2.290
301.22	2.284
301.43	2.226
301.64	2.199
301.85	2.238
302.06	2.210
302.27	2.113
302.48	2.090
302.69	2.098
302.91	2.054
303.12	2.012
303.33	1.981
303.54	2.007
303.75	2.046
303.96	2.050
304.17	1.992
304.38	2.047
304.59	2.129
304.80	2.153
305.01	2.186
305.22	2.244
305.43	2.180
305.64	2.196
305.85	2.145
306.06	2.153
306.28	2.142
306.49	2.137
306.70	2.061
306.91	1.977
307.12	1.975
307.33	1.858
307.54	1.914
307.75	1.971
307.96	1.943
308.17	1.980
308.38	1.910
308.59	1.979
308.80	1.982
309.01	1.982
309.22	2.040
309.43	2.054
309.64	2.116
309.85	2.088
310.06	2.073
310.27	2.096
310.48	2.069
310.70	2.188
310.91	2.187
311.12	2.171
311.33	2.170
311.54	2.104
311.75	2.089
311.96	2.113
312.17	2.116
312.38	2.129
312.59	2.105
312.80	2.123
313.01	2.065
313.22	2.052
313.43	2.074
313.64	1.995
313.85	2.004
314.06	1.985
314.27	1.914
314.48	1.979
314.69	2.020
314.90	2.069
315.11	2.180
315.32	2.192
315.53	2.144
315.74	2.167
315.95	2.191
316.16	2.209
316.37	2.145
316.58	2.128
316.79	2.047
317.00	2.023
317.21	1.983
317.42	1.835
317.63	1.773
317.84	1.709
318.05	1.630
318.26	1.657
318.47	1.660
318.68	1.730
318.89	1.768
319.10	1.786
319.31	1.705
319.52	1.731
319.73	1.759
319.94	1.830
320.15	1.827
320.36	1.932
320.57	1.923
320.78	1.970
320.99	1.897
321.20	1.920
321.41	1.940
321.62	1.974
321.83	1.945
322.04	1.906
322.25	1.942
322.46	1.947
322.67	1.894
322.88	1.921
323.09	1.887
323.30	1.884
323.51	1.829
323.72	1.818
323.93	1.803
324.14	1.863
324.35	1.917
324.56	1.861
324.77	1.876
324.98	1.838
325.19	1.785
325.40	1.802
325.61	1.860
325.82	1.844
326.03	1.871
326.24	1.869
326.45	1.843
326.65	1.799
326.86	1.770
327.07	1.827
327.28	1.867
327.49	1.883
327.70	1.863
327.91	1.822
328.12	1.804
328.33	1.721
328.54	1.708
328.75	1.751
328.96	1.813
329.17	1.813
329.38	1.766
329.59	1.670
329.80	1.671
330.01	1.758
330.22	1.777
330.43	1.819
330.64	1.884
330.85	1.964
331.05	1.837
331.26	1.829
331.47	1.828
331.68	1.804
331.89	1.880
332.10	1.839
332.31	1.789
332.52	1.779
332.73	1.770
332.94	1.743
333.15	1.693
333.36	1.791
333.57	1.761
333.78	1.753
333.99	1.813
334.19	1.834
334.40	1.856
334.61	1.906
334.82	1.937
335.03	1.921
335.24	1.923
335.45	1.892
335.66	1.816
335.87	1.839
336.08	1.864
336.29	1.889
336.50	1.853
336.71	1.923
336.91	1.897
337.12	1.823
337.33	1.825
337.54	1.815
337.75	1.838
337.96	1.870
338.17	1.897
338.38	1.876
338.59	1.883
338.80	1.846
339.01	1.786
339.21	1.752
339.42	1.785
339.63	1.793
339.84	1.802
340.05	1.781
340.26	1.727
340.47	1.671
340.68	1.708
340.89	1.634
341.10	1.654
341.30	1.646
341.51	1.626
341.72	1.678
341.93	1.704
342.14	1.661
342.35	1.730
342.56	1.761
342.77	1.783
342.98	1.742
343.18	1.756
343.39	1.785
343.60	1.813
343.81	1.806
344.02	1.743
344.23	1.726
344.44	1.709
344.65	1.646
344.85	1.609
345.06	1.617
345.27	1.630
345.48	1.640
345.69	1.693
345.90	1.751
346.11	1.753
346.32	1.772
346.52	1.791
346.73	1.804
346.94	1.809
347.15	1.847
347.36	1.804
347.57	1.854
347.78	1.835
347.98	1.809
348.19	1.743
348.40	1.782
348.61	1.799
348.82	1.797
349.03	1.850
349.24	1.855
349.44	1.868
349.65	1.913
349.86	1.861
350.07	1.948
350.28	1.930
350.49	1.974
350.70	1.940
350.90	1.916
351.11	1.893
351.32	1.840
351.53	1.856
351.74	1.849
351.95	1.799
352.15	1.831
352.36	1.764
352.57	1.726
352.78	1.730
352.99	1.742
353.20	1.822
353.40	1.825
353.61	1.813
353.82	1.805
354.03	1.824
354.24	1.828
354.45	1.833
354.65	1.888
354.86	1.927
355.07	1.913
355.28	1.956
355.49	1.921
355.70	1.928
355.90	1.953
356.11	1.939
356.32	1.937
356.53	1.976
356.74	1.940
356.94	1.864
357.15	1.843
357.36	1.820
357.57	1.772
357.78	1.747
357.99	1.776
358.19	1.775
358.40	1.810
358.61	1.815
358.82	1.821
359.03	1.863
359.23	1.895
359.44	1.909
359.65	1.877
359.86	1.915
360.07	1.965
360.27	1.991
360.48	2.010
360.69	1.994
360.90	1.997
361.11	2.046
361.31	2.044
361.52	2.060
361.73	2.072
361.94	2.107
362.15	2.090
362.35	2.037
362.56	2.020
362.77	2.008
362.98	2.016
363.18	1.989
363.39	1.936
363.60	1.930
363.81	1.920
364.02	1.919
364.22	1.927
364.43	1.923
364.64	1.945
364.85	1.904
365.05	1.904
365.26	1.911
365.47	1.953
365.68	1.925
365.89	1.928
366.09	1.957
366.30	1.958
366.51	1.962
366.72	1.959
366.92	2.001
367.13	2.002
367.34	2.031
367.55	2.031
367.75	2.010
367.96	2.038
368.17	2.009
368.38	2.010
368.58	1.980
368.79	1.952
369.00	1.953
369.21	1.927
369.41	1.933
369.62	1.888
369.83	1.877
370.04	1.857
370.24	1.860
370.45	1.888
370.66	1.869
370.87	1.873
371.07	1.877
371.28	1.885
371.49	1.870
371.70	1.887
371.90	1.909
372.11	1.928
372.32	1.970
372.53	1.977
372.73	1.968
372.94	1.961
373.15	2.018
373.36	2.022
373.56	2.037
373.77	2.027
373.98	2.032
374.19	2.052
374.39	2.042
374.60	2.040
374.81	2.046
375.01	2.065
375.22	2.041
375.43	2.033
375.64	2.035
375.84	2.034
376.05	2.049
376.26	2.016
376.46	1.988
376.67	1.963
376.88	1.938
377.09	1.931
377.29	1.904
377.50	1.915
377.71	1.889
377.91	1.924
378.12	1.929
378.33	1.937
378.54	1.976
378.74	1.991
378.95	2.021
379.16	2.044
379.36	2.021
379.57	2.048
379.78	2.060
379.99	2.092
380.19	2.056
380.40	2.031
380.61	2.008
380.81	1.983
381.02	2.008
381.23	2.003
381.43	1.989
381.64	2.052
381.85	2.044
382.05	2.045
382.26	2.008
382.47	2.009
382.67	2.007
382.88	2.003
383.09	2.021
383.30	2.016
383.50	2.036
383.71	2.039
383.92	2.006
384.12	2.006
384.33	1.948
384.54	1.982
384.74	1.994
384.95	2.002
385.16	2.013
385.36	2.008
385.57	1.992
385.78	1.969
385.98	1.990
386.19	1.962
386.40	1.969
386.60	2.005
386.81	1.986
387.02	1.978
387.22	1.985
387.43	1.995
387.64	1.997
387.84	1.999
388.05	2.016
388.26	2.003
388.46	2.008
388.67	2.043
388.88	2.058
389.08	2.073
389.29	2.086
389.49	2.070
389.70	2.077
389.91	2.046
390.11	2.029
390.32	2.019
390.53	2.019
390.73	2.032
390.94	1.975
391.15	1.990
391.35	1.971
391.56	1.993
391.77	1.999
391.97	1.996
392.18	2.030
392.38	2.076
392.59	2.088
392.80	2.095
393.00	2.098
393.21	2.123
393.42	2.105
393.62	2.115
393.83	2.088
394.04	2.102
394.24	2.101
394.45	2.088
394.65	2.070
394.86	2.050
395.07	2.050
395.27	2.036
395.48	2.024
395.68	2.010
395.89	2.008
396.10	2.033
396.30	2.021
396.51	2.052
396.72	2.066
396.92	2.031
397.13	2.040
397.33	2.015
397.54	2.043
397.75	2.039
397.95	2.050
398.16	2.036
398.36	2.019
398.57	2.011
398.78	1.959
398.98	1.964
399.19	1.987
399.39	1.989
399.60	2.013
399.81	2.007
400.01	2.016
400.22	2.024
400.42	2.069
400.63	2.051
400.84	2.069
401.04	2.109
401.25	2.084
401.45	2.093
401.66	2.080
401.86	2.070
402.07	2.062
402.28	2.079
402.48	2.081
402.69	2.044
402.89	2.070
403.10	2.073
403.31	2.061
403.51	2.063
403.72	2.058
403.92	2.090
404.13	2.086
404.33	2.080
404.54	2.082
404.75	2.079
404.95	2.108
405.16	2.074
405.36	2.059
405.57	2.055
405.77	2.078
405.98	2.088
406.18	2.081
406.39	2.065
406.60	2.050
406.80	2.046
407.01	2.059
407.21	2.038
407.42	2.072
407.62	2.084
407.83	2.079
408.03	2.056
408.24	2.039
408.45	2.022
408.65	2.068
408.86	2.118
409.06	2.122
409.27	2.120
409.47	2.101
409.68	2.079
409.88	2.092
410.09	2.112
410.29	2.117
410.50	2.135
410.71	2.156
410.91	2.157
411.12	2.141
411.32	2.127
411.53	2.141
411.73	2.159
411.94	2.147
412.14	2.149
412.35	2.143
412.55	2.162
412.76	2.155
412.96	2.173
413.17	2.156
413.37	2.161
413.58	2.198
413.78	2.177
413.99	2.174
414.19	2.219
414.40	2.210
414.61	2.200
414.81	2.199
415.02	2.217
415.22	2.169
415.43	2.166
415.63	2.161
415.84	2.144
416.04	2.156
416.25	2.149
416.45	2.141
416.66	2.160
416.86	2.162
417.07	2.165
417.27	2.143
417.48	2.157
417.68	2.167
417.89	2.183
418.09	2.169
418.30	2.160
418.50	2.159
418.71	2.141
418.91	2.124
419.12	2.114
419.32	2.105
419.53	2.117
419.73	2.124
419.94	2.127
420.14	2.111
420.34	2.124
420.55	2.122
420.75	2.132
420.96	2.140
421.16	2.138
421.37	2.145
421.57	2.159
421.78	2.151
421.98	2.142
422.19	2.133
422.39	2.147
422.60	2.151
422.80	2.165
423.01	2.165
423.21	2.181
423.42	2.183
423.62	2.183
423.83	2.173
424.03	2.185
424.23	2.206
424.44	2.208
424.64	2.204
424.85	2.199
425.05	2.200
425.26	2.215
425.46	2.209
425.67	2.207
425.87	2.212
426.08	2.227
426.28	2.207
426.48	2.192
426.69	2.202
426.89	2.199
427.10	2.225
427.30	2.241
427.51	2.217
427.71	2.209
427.92	2.211
428.12	2.215
428.32	2.200
428.53	2.229
428.73	2.221
428.94	2.212
429.14	2.214
429.35	2.193
429.55	2.173
429.76	2.204
429.96	2.222
430.16	2.251
430.37	2.268
430.57	2.272
430.78	2.286
430.98	2.292
431.19	2.280
431.39	2.269
431.59	2.245
431.80	2.246
432.00	2.203
432.21	2.197
432.41	2.172
432.61	2.159
432.82	2.153
433.02	2.149
433.23	2.144
433.43	2.157
433.64	2.171
433.84	2.190
434.04	2.190
434.25	2.204
434.45	2.206
434.66	2.219
434.86	2.220
435.06	2.226
435.27	2.201
435.47	2.211
435.68	2.177
435.88	2.152
436.08	2.143
436.29	2.142
436.49	2.156
436.70	2.154
436.90	2.143
437.10	2.156
437.31	2.147
437.51	2.165
437.71	2.166
437.92	2.190
438.12	2.202
438.33	2.214
438.53	2.218
438.73	2.218
438.94	2.218
439.14	2.234
439.35	2.228
439.55	2.245
439.75	2.234
439.96	2.233
440.16	2.231
440.36	2.232
440.57	2.214
440.77	2.215
440.97	2.217
441.18	2.227
441.38	2.229
441.59	2.229
441.79	2.217
441.99	2.229
442.20	2.204
442.40	2.207
442.60	2.211
442.81	2.219
443.01	2.203
443.21	2.192
443.42	2.187
443.62	2.188
443.83	2.201
444.03	2.210
444.23	2.201
444.44	2.225
444.64	2.232
444.84	2.226
445.05	2.225
445.25	2.228
445.45	2.235
445.66	2.236
445.86	2.228
446.06	2.226
446.27	2.227
446.47	2.231
446.67	2.244
446.88	2.241
447.08	2.253
447.28	2.259
447.49	2.271
447.69	2.276
447.89	2.282
448.10	2.293
448.30	2.298
448.50	2.290
448.71	2.276
448.91	2.270
449.11	2.274
449.32	2.270
449.52	2.290
449.72	2.285
449.93	2.268
450.13	2.253
450.33	2.257
450.53	2.233
450.74	2.235
450.94	2.249
451.14	2.242
451.35	2.253
451.55	2.264
451.75	2.250
451.96	2.252
452.16	2.260
452.36	2.261
452.57	2.264
452.77	2.291
452.97	2.296
453.17	2.292
453.38	2.293
453.58	2.270
453.78	2.242
453.99	2.238
454.19	2.241
454.39	2.250
454.59	2.268
454.80	2.263
455.00	2.260
455.20	2.251
455.41	2.252
455.61	2.258
455.81	2.271
456.01	2.290
456.22	2.307
456.42	2.297
456.62	2.296
456.83	2.294
457.03	2.286
457.23	2.261
457.43	2.269
457.64	2.288
457.84	2.276
458.04	2.285
458.25	2.284
458.45	2.269
458.65	2.266
458.85	2.260
459.06	2.250
459.26	2.239
459.46	2.247
459.66	2.253
459.87	2.249
460.07	2.266
460.27	2.259
460.47	2.259
460.68	2.273
460.88	2.274
461.08	2.275
461.28	2.287
461.49	2.297
461.69	2.311
461.89	2.319
462.09	2.320
462.30	2.301
462.50	2.301
462.70	2.305
462.90	2.286
463.11	2.311
463.31	2.305
463.51	2.280
463.71	2.284
463.92	2.285
464.12	2.275
464.32	2.267
464.52	2.265
464.72	2.281
464.93	2.265
465.13	2.264
465.33	2.246
465.53	2.253
465.74	2.280
465.94	2.260
466.14	2.259
466.34	2.250
466.54	2.250
466.75	2.239
466.95	2.232
467.15	2.236
467.35	2.242
467.56	2.249
467.76	2.259
467.96	2.256
468.16	2.260
468.36	2.246
468.57	2.266
468.77	2.280
468.97	2.293
469.17	2.290
469.37	2.291
469.58	2.287
469.78	2.280
469.98	2.281
470.18	2.268
470.38	2.272
470.59	2.271
470.79	2.259
470.99	2.241
471.19	2.234
471.39	2.249
471.60	2.240
471.80	2.237
472.00	2.243
472.20	2.235
472.40	2.246
472.61	2.255
472.81	2.270
473.01	2.263
473.21	2.266
473.41	2.268
473.61	2.256
473.82	2.289
474.02	2.298
474.22	2.305
474.42	2.306
474.62	2.306
474.82	2.325
475.03	2.332
475.23	2.338
475.43	2.360
475.63	2.368
475.83	2.368
476.03	2.346
476.24	2.330
476.44	2.333
476.64	2.336
476.84	2.332
477.04	2.316
477.24	2.304
477.45	2.312
477.65	2.308
477.85	2.298
478.05	2.294
478.25	2.295
478.45	2.313
478.65	2.312
478.86	2.310
479.06	2.303
479.26	2.318
479.46	2.324
479.66	2.328
479.86	2.321
480.06	2.332
480.27	2.329
480.47	2.330
480.67	2.314
480.87	2.307
481.07	2.303
481.27	2.320
481.47	2.313
481.68	2.314
481.88	2.322
482.08	2.326
482.28	2.342
482.48	2.356
482.68	2.364
482.88	2.380
483.08	2.403
483.29	2.410
483.49	2.389
483.69	2.371
483.89	2.366
484.09	2.363
484.29	2.359
484.49	2.358
484.69	2.358
484.89	2.359
485.10	2.355
485.30	2.336
485.50	2.337
485.70	2.354
485.90	2.383
486.10	2.397
486.30	2.406
486.50	2.417
486.70	2.411
486.90	2.405
487.11	2.399
487.31	2.395
487.51	2.382
487.71	2.370
487.91	2.369
488.11	2.362
488.31	2.366
488.51	2.361
488.71	2.358
488.91	2.363
489.11	2.364
489.32	2.368
489.52	2.368
489.72	2.389
489.92	2.396
490.12	2.407
490.32	2.416
490.52	2.405
490.72	2.404
490.92	2.396
491.12	2.380
491.32	2.379
491.52	2.379
491.72	2.378
491.92	2.374
492.13	2.377
492.33	2.375
492.53	2.374
492.73	2.376
492.93	2.380
493.13	2.392
493.33	2.405
493.53	2.420
493.73	2.421
493.93	2.423
494.13	2.426
494.33	2.409
494.53	2.404
494.73	2.406
494.93	2.420
495.13	2.414
495.33	2.402
495.53	2.394
495.73	2.381
495.94	2.379
496.14	2.381
496.34	2.382
496.54	2.393
496.74	2.392
496.94	2.398
497.14	2.380
497.34	2.387
497.54	2.388
497.74	2.378
497.94	2.382
498.14	2.389
498.34	2.384
498.54	2.388
498.74	2.384
498.94	2.390
499.14	2.384
499.34	2.390
499.54	2.379
499.74	2.388
499.94	2.406
500.14	2.402
500.34	2.404
500.54	2.416
500.74	2.405
500.94	2.414
501.14	2.412
501.34	2.418
501.54	2.416
501.74	2.410
501.94	2.399
502.14	2.394
502.34	2.395
502.54	2.382
502.74	2.383
502.94	2.387
503.14	2.379
503.34	2.390
503.54	2.398
503.74	2.398
503.94	2.409
504.14	2.414
504.34	2.418
504.54	2.418
504.74	2.409
504.94	2.395
505.14	2.405
505.34	2.413
505.54	2.398
505.74	2.390
505.94	2.401
506.14	2.411
506.34	2.432
506.54	2.437
506.74	2.432
506.94	2.436
507.14	2.444
507.34	2.430
507.54	2.429
507.74	2.430
507.94	2.423
508.14	2.416
508.34	2.399
508.54	2.385
508.74	2.390
508.94	2.398
509.13	2.403
509.33	2.408
509.53	2.414
509.73	2.415
509.93	2.418
510.13	2.432
510.33	2.430
510.53	2.430
510.73	2.430
510.93	2.431
511.13	2.430
511.33	2.428
511.53	2.426
511.73	2.433
511.93	2.436
512.13	2.433
512.33	2.423
512.53	2.428
512.73	2.435
512.92	2.447
513.12	2.438
513.32	2.445
513.52	2.452
513.72	2.463
513.92	2.451
514.12	2.445
514.32	2.448
514.52	2.449
514.72	2.447
514.92	2.443
515.12	2.437
515.32	2.432
515.52	2.432
515.71	2.434
515.91	2.426
516.11	2.443
516.31	2.451
516.51	2.448
516.71	2.459
516.91	2.475
517.11	2.482
517.31	2.482
517.51	2.494
517.71	2.494
517.90	2.495
518.10	2.487
518.30	2.476
518.50	2.461
518.70	2.465
518.90	2.463
519.10	2.456
519.30	2.453
519.50	2.458
519.69	2.457
519.89	2.464
520.09	2.454
520.29	2.459
520.49	2.463
520.69	2.483
520.89	2.485
521.09	2.470
521.29	2.463
521.48	2.465
521.68	2.455
521.88	2.450
522.08	2.441
522.28	2.460
522.48	2.460
522.68	2.471
522.88	2.475
523.07	2.482
523.27	2.501
523.47	2.523
523.67	2.534
523.87	2.541
524.07	2.534
524.27	2.538
524.47	2.536
524.66	2.533
524.86	2.534
525.06	2.535
525.26	2.534
525.46	2.536
525.66	2.530
525.85	2.522
526.05	2.529
526.25	2.532
526.45	2.531
526.65	2.545
526.85	2.570
527.05	2.583
527.24	2.591
527.44	2.592
527.64	2.581
527.84	2.567
528.04	2.564
528.24	2.548
528.43	2.546
528.63	2.543
528.83	2.536
529.03	2.528
529.23	2.515
529.43	2.509
529.62	2.505
529.82	2.502
530.02	2.511
530.22	2.516
530.42	2.529
530.62	2.532
530.81	2.542
531.01	2.548
531.21	2.549
531.41	2.561
531.61	2.567
531.80	2.570
532.00	2.579
532.20	2.569
532.40	2.570
532.60	2.574
532.79	2.575
532.99	2.567
533.19	2.570
533.39	2.568
533.59	2.570
533.78	2.561
533.98	2.569
534.18	2.579
534.38	2.590
534.58	2.595
534.77	2.593
534.97	2.600
535.17	2.610
535.37	2.604
535.57	2.610
535.76	2.609
535.96	2.612
536.16	2.600
536.36	2.588
536.56	2.575
536.75	2.566
536.95	2.564
537.15	2.558
537.35	2.564
537.54	2.577
537.74	2.579
537.94	2.584
538.14	2.583
538.34	2.595
538.53	2.609
538.73	2.617
538.93	2.617
539.13	2.628
539.32	2.640
539.52	2.629
539.72	2.630
539.92	2.634
540.11	2.628
540.31	2.621
540.51	2.604
540.71	2.593
540.90	2.584
541.10	2.586
541.30	2.584
541.50	2.583
541.69	2.576
541.89	2.566
542.09	2.567
542.29	2.567
542.48	2.572
542.68	2.580
542.88	2.583
543.08	2.600
543.27	2.610
543.47	2.616
543.67	2.615
543.87	2.634
544.06	2.633
544.26	2.636
544.46	2.643
544.65	2.657
544.85	2.654
545.05	2.661
545.25	2.656
545.44	2.646
545.64	2.654
545.84	2.659
546.04	2.648
546.23	2.646
546.43	2.629
546.63	2.617
546.82	2.602
547.02	2.611
547.22	2.615
547.42	2.615
547.61	2.629
547.81	2.629
548.01	2.624
548.20	2.630
548.40	2.647
548.60	2.672
548.79	2.673
548.99	2.678
549.19	2.675
549.39	2.650
549.58	2.659
549.78	2.640
549.98	2.628
550.17	2.634
550.37	2.631
550.57	2.630
550.76	2.617
550.96	2.630
551.16	2.632
551.35	2.622
551.55	2.633
551.75	2.631
551.94	2.627
552.14	2.634
552.34	2.627
552.53	2.626
552.73	2.623
552.93	2.632
553.13	2.631
553.32	2.629
553.52	2.643
553.72	2.644
553.91	2.627
554.11	2.626
554.31	2.614
554.50	2.614
554.70	2.618
554.89	2.629
555.09	2.626
555.29	2.616
555.48	2.619
555.68	2.618
555.88	2.617
556.07	2.628
556.27	2.646
556.47	2.654
556.66	2.654
556.86	2.664
557.06	2.662
557.25	2.656
557.45	2.664
557.65	2.664
557.84	2.661
558.04	2.672
558.23	2.663
558.43	2.658
558.63	2.666
558.82	2.676
559.02	2.664
559.22	2.658
559.41	2.662
559.61	2.664
559.81	2.658
560.00	2.662
560.20	2.656
560.39	2.678
560.59	2.671
560.79	2.658
560.98	2.664
561.18	2.671
561.37	2.682
561.57	2.684
561.77	2.684
561.96	2.694
562.16	2.692
562.36	2.691
562.55	2.689
562.75	2.693
562.94	2.710
563.14	2.695
563.34	2.691
563.53	2.683
563.73	2.688
563.92	2.700
564.12	2.688
564.32	2.696
564.51	2.698
564.71	2.707
564.90	2.710
565.10	2.691
565.29	2.706
565.49	2.711
565.69	2.709
565.88	2.699
566.08	2.686
566.27	2.698
566.47	2.696
566.67	2.697
566.86	2.687
567.06	2.694
567.25	2.707
567.45	2.711
567.64	2.716
567.84	2.725
568.04	2.735
568.23	2.740
568.43	2.735
568.62	2.729
568.82	2.723
569.01	2.728
569.21	2.710
569.41	2.725
569.60	2.713
569.80	2.709
569.99	2.705
570.19	2.721
570.38	2.729
570.58	2.752
570.77	2.758
570.97	2.776
571.17	2.777
571.36	2.788
571.56	2.776
571.75	2.777
571.95	2.773
572.14	2.778
572.34	2.771
572.53	2.786
572.73	2.766
572.92	2.763
573.12	2.773
573.31	2.772
573.51	2.774
573.70	2.784
573.90	2.785
574.10	2.788
574.29	2.791
574.49	2.793
574.68	2.770
574.88	2.775
575.07	2.788
575.27	2.779
575.46	2.782
575.66	2.785
575.85	2.770
576.05	2.779
576.24	2.796
576.44	2.789
576.63	2.783
576.83	2.799
577.02	2.804
577.22	2.796
577.41	2.786
577.61	2.778
577.80	2.771
578.00	2.777
578.19	2.783
578.39	2.772
578.58	2.765
578.78	2.762
578.97	2.766
579.17	2.775
579.36	2.771
579.56	2.791
579.75	2.793
579.95	2.811
580.14	2.804
580.34	2.801
580.53	2.795
580.73	2.812
580.92	2.823
581.12	2.814
581.31	2.813
581.51	2.835
581.70	2.839
581.89	2.845
582.09	2.846
582.28	2.852
582.48	2.836
582.67	2.854
582.87	2.852
583.06	2.846
583.26	2.836
583.45	2.834
583.65	2.808
583.84	2.801
584.04	2.792
584.23	2.797
584.43	2.792
584.62	2.796
584.81	2.782
585.01	2.788
585.20	2.798
585.40	2.813
585.59	2.806
585.79	2.821
585.98	2.819
586.18	2.835
586.37	2.807
586.56	2.817
586.76	2.819
586.95	2.822
587.15	2.818
587.34	2.814
587.54	2.815
587.73	2.834
587.92	2.820
588.12	2.823
588.31	2.828
588.51	2.843
588.70	2.859
588.90	2.861
589.09	2.867
589.28	2.865
589.48	2.867
589.67	2.866
589.87	2.845
590.06	2.847
590.25	2.853
590.45	2.845
590.64	2.854
590.84	2.839
591.03	2.839
591.23	2.838
591.42	2.842
591.61	2.835
591.81	2.841
592.00	2.849
592.20	2.860
592.39	2.859
592.58	2.855
592.78	2.866
592.97	2.875
593.17	2.881
593.36	2.881
593.55	2.884
593.75	2.905
593.94	2.890
594.13	2.901
594.33	2.896
594.52	2.897
594.72	2.912
594.91	2.907
595.10	2.919
595.30	2.909
595.49	2.924
595.68	2.931
595.88	2.927
596.07	2.929
596.27	2.911
596.46	2.905
596.65	2.901
596.85	2.883
597.04	2.881
597.23	2.880
597.43	2.903
597.62	2.889
597.81	2.870
598.01	2.872
598.20	2.890
598.40	2.899
598.59	2.908
598.78	2.925
598.98	2.949
599.17	2.949
599.36	2.935
599.56	2.935
599.75	2.932
599.94	2.969
600.14	2.962
600.33	2.968
600.52	2.983
600.72	2.991
600.91	2.976
601.10	2.976
601.30	2.978
601.49	2.976
601.68	2.972
601.88	2.973
602.07	2.953
602.26	2.949
602.46	2.929
602.65	2.909
602.84	2.931
603.04	2.939
603.23	2.937
603.42	2.952
603.62	2.966
603.81	2.967
604.00	2.985
604.20	2.971
604.39	2.977
604.58	2.986
604.77	3.000
604.97	2.995
605.16	2.995
605.35	2.998
605.55	2.999
605.74	2.997
605.93	3.009
606.13	3.009
606.32	3.023
606.51	3.025
606.70	3.045
606.90	3.062
607.09	3.059
607.28	3.070
607.48	3.066
607.67	3.052
607.86	3.058
608.05	3.047
608.25	3.043
608.44	3.062
608.63	3.061
608.83	3.050
609.02	3.037
609.21	3.041
609.40	3.034
609.60	3.041
609.79	3.038
609.98	3.036
610.17	3.033
610.37	3.028
610.56	3.020
610.75	3.024
610.95	3.013
611.14	3.014
611.33	3.008
611.52	3.006
611.72	2.998
611.91	3.010
612.10	3.014
612.29	3.026
612.49	3.016
612.68	3.015
612.87	3.025
613.06	3.035
613.26	3.055
613.45	3.064
613.64	3.085
613.83	3.071
614.03	3.056
614.22	3.044
614.41	3.043
614.60	3.052
614.79	3.060
614.99	3.041
615.18	3.034
615.37	3.029
615.56	3.015
615.76	3.010
615.95	3.031
616.14	3.033
616.33	3.045
616.53	3.053
616.72	3.069
616.91	3.055
617.10	3.065
617.29	3.069
617.49	3.052
617.68	3.057
617.87	3.041
618.06	3.050
618.25	3.064
618.45	3.067
618.64	3.058
618.83	3.060
619.02	3.093
619.21	3.093
619.41	3.102
619.60	3.116
619.79	3.118
619.98	3.130
620.17	3.134
620.37	3.133
620.56	3.139
620.75	3.154
620.94	3.146
621.13	3.144
621.33	3.136
621.52	3.124
621.71	3.119
621.90	3.121
622.09	3.103
622.28	3.097
622.48	3.101
622.67	3.107
622.86	3.098
623.05	3.109
623.24	3.098
623.44	3.118
623.63	3.141
623.82	3.165
624.01	3.164
624.20	3.176
624.39	3.188
624.59	3.185
624.78	3.175
624.97	3.189
625.16	3.190
625.35	3.195
625.54	3.193
625.73	3.168
625.93	3.146
626.12	3.161
626.31	3.166
626.50	3.148
626.69	3.155
626.88	3.166
627.07	3.162
627.27	3.158
627.46	3.167
627.65	3.164
627.84	3.179
628.03	3.177
628.22	3.175
628.41	3.187
628.61	3.215
628.80	3.207
628.99	3.207
629.18	3.202
629.37	3.234
629.56	3.219
629.75	3.228
629.94	3.233
630.14	3.257
630.33	3.252
630.52	3.254
630.71	3.237
630.90	3.272
631.09	3.273
631.28	3.293
631.47	3.274
631.66	3.290
631.86	3.293
632.05	3.284
632.24	3.286
632.43	3.290
632.62	3.288
632.81	3.295
633.00	3.275
633.19	3.268
633.38	3.261
633.57	3.248
633.77	3.227
633.96	3.248
634.15	3.270
634.34	3.273
634.53	3.282
634.72	3.282
634.91	3.285
635.10	3.293
635.29	3.297
635.48	3.313
635.67	3.325
635.86	3.342
636.05	3.327
636.25	3.334
636.44	3.325
636.63	3.319
636.82	3.341
637.01	3.368
637.20	3.373
637.39	3.376
637.58	3.362
637.77	3.360
637.96	3.367
638.15	3.366
638.34	3.353
638.53	3.373
638.72	3.359
638.91	3.349
639.10	3.351
639.30	3.338
639.49	3.343
639.68	3.350
639.87	3.360
640.06	3.362
640.25	3.385
640.44	3.368
640.63	3.352
640.82	3.359
641.01	3.389
641.20	3.356
641.39	3.369
641.58	3.395
641.77	3.397
641.96	3.411
642.15	3.411
642.34	3.417
642.53	3.436
642.72	3.430
642.91	3.448
643.10	3.428
643.29	3.466
643.48	3.477
643.67	3.445
643.86	3.463
644.05	3.490
644.24	3.491
644.43	3.487
644.62	3.501
644.81	3.491
645.00	3.492
645.19	3.480
645.38	3.433
645.57	3.408
645.76	3.421
645.95	3.400
646.14	3.384
646.33	3.390
646.52	3.377
646.71	3.385
646.90	3.417
647.09	3.411
647.28	3.428
647.47	3.445
647.66	3.468
647.85	3.487
648.04	3.491
648.23	3.484
648.42	3.491
648.61	3.486
648.80	3.461
648.99	3.451
649.18	3.479
649.37	3.462
649.56	3.469
649.75	3.451
649.94	3.443
650.13	3.463
650.32	3.464
650.51	3.462
650.70	3.473
650.89	3.471
651.08	3.476
651.27	3.467
651.46	3.472
651.65	3.467
651.83	3.504
652.02	3.500
652.21	3.489
652.40	3.502
652.59	3.498
652.78	3.510
652.97	3.526
653.16	3.529
653.35	3.520
653.54	3.551
653.73	3.572
653.92	3.563
654.11	3.560
654.30	3.578
654.49	3.586
654.68	3.586
654.86	3.586
655.05	3.594
655.24	3.585
655.43	3.572
655.62	3.544
655.81	3.529
656.00	3.534
656.19	3.558
656.38	3.557
656.57	3.545
656.76	3.546
656.95	3.541
657.13	3.541
657.32	3.560
657.51	3.590
657.70	3.617
657.89	3.653
658.08	3.642
658.27	3.658
658.46	3.628
658.65	3.625
658.84	3.616
659.02	3.628
659.21	3.657
659.40	3.671
659.59	3.698
659.78	3.702
659.97	3.700
660.16	3.718
660.35	3.681
660.54	3.694
660.72	3.704
660.91	3.703
661.10	3.680
661.29	3.660
661.48	3.646
661.67	3.630
661.86	3.626
662.05	3.611
662.23	3.606
662.42	3.634
662.61	3.646
662.80	3.650
662.99	3.685
663.18	3.723
663.37	3.713
663.56	3.728
663.74	3.704
663.93	3.705
664.12	3.706
664.31	3.686
664.50	3.692
664.69	3.730
664.87	3.754
665.06	3.755
665.25	3.772
665.44	3.780
665.63	3.786
665.82	3.783
666.01	3.784
666.19	3.799
666.38	3.824
666.57	3.811
666.76	3.772
666.95	3.747
667.14	3.745
667.32	3.730
667.51	3.754
667.70	3.750
667.89	3.778
668.08	3.791
668.26	3.796
668.45	3.798
668.64	3.798
668.83	3.845
669.02	3.864
669.21	3.844
669.39	3.852
669.58	3.846
669.77	3.837
669.96	3.840
670.15	3.837
670.33	3.816
670.52	3.784
670.71	3.791
670.90	3.746
671.09	3.715
671.27	3.753
671.46	3.726
671.65	3.727
671.84	3.749
672.03	3.754
672.21	3.783
672.40	3.781
672.59	3.791
672.78	3.811
672.96	3.800
673.15	3.815
673.34	3.815
673.53	3.814
673.72	3.808
673.90	3.803
674.09	3.822
674.28	3.794
674.47	3.826
674.65	3.849
674.84	3.829
675.03	3.862
675.22	3.878
675.41	3.876
675.59	3.873
675.78	3.881
675.97	3.876
676.16	3.841
676.34	3.840
676.53	3.821
676.72	3.840
676.91	3.809
677.09	3.809
677.28	3.800
677.47	3.805
677.66	3.836
677.84	3.844
678.03	3.840
678.22	3.883
678.41	3.881
678.59	3.903
678.78	3.898
678.97	3.931
679.15	3.954
679.34	3.968
679.53	3.993
679.72	3.981
679.90	3.987
680.09	4.006
680.28	3.988
680.47	3.994
680.65	3.990
680.84	3.977
681.03	4.001
681.21	3.986
681.40	3.958
681.59	3.943
681.78	3.983
681.96	3.981
682.15	3.969
682.34	3.974
682.52	3.944
682.71	3.924
682.90	3.931
683.08	3.936
683.27	3.944
683.46	3.940
683.65	3.922
683.83	3.891
684.02	3.911
684.21	3.913
684.39	3.901
684.58	3.947
684.77	3.977
684.95	3.993
685.14	3.980
685.33	3.980
685.51	4.009
685.70	4.019
685.89	4.039
686.07	4.058
686.26	4.067
686.45	4.105
686.63	4.096
686.82	4.111
687.01	4.104
687.20	4.100
687.38	4.103
687.57	4.112
687.75	4.124
687.94	4.146
688.13	4.131
688.31	4.135
688.50	4.132
688.69	4.138
688.87	4.117
689.06	4.110
689.25	4.130
689.43	4.141
689.62	4.155
689.81	4.165
689.99	4.150
690.18	4.139
690.37	4.121
690.55	4.115
690.74	4.121
690.93	4.151
691.11	4.176
691.30	4.186
691.48	4.198
691.67	4.196
691.86	4.180
692.04	4.171
692.23	4.181
692.42	4.254
692.60	4.242
692.79	4.231
692.97	4.224
693.16	4.243
693.35	4.236
693.53	4.232
693.72	4.242
693.90	4.281
694.09	4.286
694.28	4.332
694.46	4.281
694.65	4.306
694.83	4.354
695.02	4.363
695.21	4.381
695.39	4.392
695.58	4.414
695.76	4.423
695.95	4.382
696.14	4.396
696.32	4.359
696.51	4.395
696.69	4.387
696.88	4.403
697.07	4.401
697.25	4.389
697.44	4.381
697.62	4.366
697.81	4.363
697.99	4.382
698.18	4.369
698.37	4.373
698.55	4.389
698.74	4.396
698.92	4.376
699.11	4.397
699.29	4.415
699.48	4.415
699.67	4.403
699.85	4.414
700.04	4.414
700.22	4.453
700.41	4.484
700.59	4.466
700.78	4.463
700.96	4.452
701.15	4.446
701.34	4.401
701.52	4.417
701.71	4.472
701.89	4.498
702.08	4.528
702.26	4.502
702.45	4.462
702.63	4.468
702.82	4.506
703.00	4.547
703.19	4.535
703.38	4.575
703.56	4.575
703.75	4.539
703.93	4.520
704.12	4.521
704.30	4.518
704.49	4.545
704.67	4.544
704.86	4.544
705.04	4.553
705.23	4.571
705.41	4.535
705.60	4.541
705.78	4.554
705.97	4.559
706.15	4.554
706.34	4.607
706.52	4.621
706.71	4.674
706.89	4.650
707.08	4.604
707.26	4.607
707.45	4.617
707.63	4.627
707.82	4.633
708.00	4.598
708.19	4.590
708.37	4.617
708.56	4.625
708.74	4.582
708.93	4.608
709.11	4.639
709.30	4.623
709.48	4.681
709.67	4.704
709.85	4.715
710.04	4.754
710.22	4.781
710.41	4.706
710.59	4.687
710.77	4.711
710.96	4.699
711.14	4.684
711.33	4.698
711.51	4.679
711.70	4.657
711.88	4.672
712.07	4.666
712.25	4.647
712.44	4.653
712.62	4.671
712.80	4.676
712.99	4.705
713.17	4.714
713.36	4.718
713.54	4.746
713.73	4.762
713.91	4.748
714.10	4.728
714.28	4.748
714.46	4.809
714.65	4.817
714.83	4.827
715.02	4.854
715.20	4.904
715.39	4.904
715.57	4.906
715.75	4.929
715.94	4.953
716.12	4.993
716.31	4.990
716.49	4.959
716.68	4.962
716.86	4.948
717.04	4.910
717.23	4.963
717.41	4.992
717.60	4.968
717.78	4.958
717.96	4.928
718.15	4.900
718.33	4.909
718.52	4.950
718.70	4.949
718.88	4.950
719.07	4.980
719.25	4.869
719.44	4.851
719.62	4.880
719.80	4.909
719.99	4.921
720.17	4.952
720.36	4.941
720.54	4.921
720.72	4.942
720.91	4.958
721.09	4.933
721.27	4.973
721.46	4.959
721.64	4.910
721.83	4.848
722.01	4.838
722.19	4.848
722.38	4.862
722.56	4.867
722.74	4.870
722.93	4.857
723.11	4.845
723.30	4.844
723.48	4.914
723.66	4.962
723.85	5.052
724.03	5.063
724.21	5.078
724.40	5.092
724.58	5.141
724.76	5.116
724.95	5.097
725.13	5.140
725.31	5.160
725.50	5.147
725.68	5.167
725.86	5.143
726.05	5.168
726.23	5.163
726.41	5.213
726.60	5.138
726.78	5.113
726.96	5.152
727.15	5.125
727.33	5.123
727.51	5.124
727.70	5.085
727.88	5.068
728.06	5.048
728.25	5.034
728.43	4.978
728.61	5.058
728.80	5.103
728.98	5.133
729.16	5.163
729.34	5.163
729.53	5.163
729.71	5.213
729.89	5.231
730.08	5.241
730.26	5.272
730.44	5.286
730.63	5.254
730.81	5.281
730.99	5.298
731.17	5.373
731.36	5.367
731.54	5.349
731.72	5.341
731.91	5.362
732.09	5.389
732.27	5.415
732.45	5.429
732.64	5.452
732.82	5.413
733.00	5.405
733.19	5.329
733.37	5.337
733.55	5.364
733.73	5.366
733.92	5.420
734.10	5.445
734.28	5.395
734.46	5.388
734.65	5.353
734.83	5.398
735.01	5.385
735.19	5.414
735.38	5.416
735.56	5.393
735.74	5.414
735.92	5.358
736.11	5.312
736.29	5.367
736.47	5.410
736.65	5.425
736.84	5.402
737.02	5.411
737.20	5.401
737.38	5.439
737.57	5.434
737.75	5.376
737.93	5.378
738.11	5.380
738.30	5.397
738.48	5.363
738.66	5.348
738.84	5.388
739.02	5.382
739.21	5.394
739.39	5.364
739.57	5.411
739.75	5.432
739.93	5.466
740.12	5.476
740.30	5.465
740.48	5.466
740.66	5.501
740.85	5.516
741.03	5.520
741.21	5.539
741.39	5.559
741.57	5.568
741.76	5.595
741.94	5.550
742.12	5.605
742.30	5.603
742.48	5.595
742.66	5.604
742.85	5.581
743.03	5.567
743.21	5.559
743.39	5.581
743.57	5.573
743.76	5.559
743.94	5.600
744.12	5.493
744.30	5.507
744.48	5.536
744.66	5.561
744.85	5.514
745.03	5.586
745.21	5.629
745.39	5.639
745.57	5.697
745.75	5.734
745.94	5.708
746.12	5.840
746.30	5.837
746.48	5.886
746.66	5.863
746.84	5.843
747.02	5.832
747.21	5.844
747.39	5.795
747.57	5.764
747.75	5.748
747.93	5.790
748.11	5.787
748.29	5.819
748.48	5.777
748.66	5.822
748.84	5.888
749.02	5.908
749.20	5.914
749.38	5.926
749.56	5.935
749.75	5.984
749.93	5.943
750.11	5.952
750.29	5.902
750.47	5.969
750.65	5.884
750.83	5.850
751.01	5.796
751.19	5.772
751.38	5.858
751.56	5.846
751.74	5.779
751.92	5.850
752.10	5.851
752.28	5.945
752.46	5.917
752.64	5.981
752.82	6.070
753.00	6.122
753.19	6.100
753.37	6.030
753.55	6.045
753.73	6.056
753.91	6.012
754.09	5.975
754.27	5.919
754.45	5.961
754.63	6.002
754.81	5.908
754.99	5.909
755.17	5.995
755.36	6.030
755.54	6.051
755.72	6.111
755.90	6.148
756.08	6.195
756.26	6.207
756.44	6.204
756.62	6.164
756.80	6.275
756.98	6.211
757.16	6.127
757.34	6.173
757.52	6.252
757.70	6.262
757.88	6.230
758.06	6.230
758.24	6.207
758.42	6.184
758.61	6.268
758.79	6.201
758.97	6.241
759.15	6.267
759.33	6.239
759.51	6.189
759.69	6.204
759.87	6.236
760.05	6.247
760.23	6.248
760.41	6.253
760.59	6.187
760.77	6.278
760.95	6.316
761.13	6.312
761.31	6.358
761.49	6.355
761.67	6.340
761.85	6.354
762.03	6.371
762.21	6.435
762.39	6.432
762.57	6.504
762.75	6.487
762.93	6.475
763.11	6.465
763.29	6.415
763.47	6.383
763.65	6.400
763.83	6.385
764.01	6.370
764.19	6.346
764.37	6.372
764.55	6.337
764.73	6.328
764.91	6.339
765.09	6.366
765.27	6.387
765.45	6.408
765.63	6.384
765.81	6.406
765.99	6.396
766.17	6.412
766.35	6.421
766.53	6.435
766.71	6.449
766.89	6.476
767.07	6.499
767.25	6.518
767.43	6.565
767.61	6.617
767.78	6.615
767.96	6.637
768.14	6.619
768.32	6.634
768.50	6.639
768.68	6.611
768.86	6.604
769.04	6.559
769.22	6.565
769.40	6.587
769.58	6.622
769.76	6.582
769.94	6.638
770.12	6.710
770.30	6.677
770.48	6.679
770.66	6.745
770.84	6.710
771.01	6.746
771.19	6.759
771.37	6.796
771.55	6.816
771.73	6.860
771.91	6.886
772.09	6.864
772.27	6.898
772.45	6.927
772.63	6.944
772.81	6.969
772.99	6.875
773.16	6.818
773.34	6.763
773.52	6.748
773.70	6.796
773.88	6.823
774.06	6.786
774.24	6.826
774.42	6.811
774.60	6.781
774.78	6.698
774.95	6.876
775.13	6.925
775.31	6.869
775.49	6.863
775.67	6.826
775.85	6.767
776.03	6.880
776.21	6.818
776.38	6.826
776.56	6.900
776.74	6.982
776.92	6.930
777.10	6.967
777.28	7.033
777.46	6.988
777.64	7.056
777.81	7.101
777.99	6.956
778.17	6.945
778.35	6.981
778.53	6.963
778.71	7.041
778.89	7.049
779.06	7.081
779.24	7.087
779.42	7.135
779.60	7.035
779.78	7.012
779.96	7.119
780.13	7.249
780.31	7.304
780.49	7.262
780.67	7.214
780.85	7.211
781.03	7.132
781.20	7.061
781.38	7.129
781.56	7.187
781.74	7.215
781.92	7.210
782.10	7.115
782.27	7.122
782.45	7.201
782.63	7.171
782.81	7.252
782.99	7.319
783.17	7.445
783.34	7.341
783.52	7.310
783.70	7.278
783.88	7.273
784.06	7.366
784.23	7.242
784.41	7.202
784.59	7.260
784.77	7.168
784.95	7.280
785.12	7.120
785.30	7.185
785.48	7.263
785.66	7.286
785.83	7.300
786.01	7.337
786.19	7.427
786.37	7.341
786.55	7.333
786.72	7.409
786.90	7.382
787.08	7.561
787.26	7.550
787.43	7.524
787.61	7.549
787.79	7.549
787.97	7.459
788.15	7.454
788.32	7.506
788.50	7.486
788.68	7.432
788.86	7.385
789.03	7.367
789.21	7.357
789.39	7.409
789.57	7.421
789.74	7.531
789.92	7.630
790.10	7.583
790.28	7.654
790.45	7.790
790.63	7.853
790.81	7.820
790.99	7.798
791.16	7.850
791.34	7.845
791.52	7.834
791.69	7.815
791.87	7.722
792.05	7.817
792.23	7.810
792.40	7.645
792.58	7.548
792.76	7.653
792.94	7.703
793.11	7.756
793.29	7.759
793.47	7.751
793.64	7.678
793.82	7.721
794.00	7.673
794.18	7.518
794.35	7.652
794.53	7.737
794.71	7.704
794.88	7.649
795.06	7.612
795.24	7.668
795.41	7.668
795.59	7.680
795.77	7.693
795.94	7.717
796.12	7.973
796.30	7.970
796.48	7.984
796.65	8.013
796.83	7.939
797.01	7.998
797.18	7.947
797.36	8.015
797.54	8.020
797.71	8.054
797.89	8.036
798.07	7.895
798.24	7.917
798.42	7.770
798.60	7.689
798.77	7.871
798.95	7.774
799.13	7.740
799.30	7.621
799.48	7.742
799.66	7.742
799.83	7.778
800.01	7.777
800.18	7.728
800.36	7.927
800.54	8.079
800.71	7.980
800.89	8.027
801.07	8.077
801.24	8.171
801.42	8.104
801.60	8.112
801.77	8.043
801.95	8.013
802.12	8.032
802.30	8.066
802.48	8.037
802.65	8.228
802.83	8.237
803.01	8.341
803.18	8.367
803.36	8.344
803.53	8.340
803.71	8.465
803.89	8.410
804.06	8.417
804.24	8.401
804.41	8.389
804.59	8.251
804.77	8.291
804.94	8.325
805.12	8.457
805.29	8.537
805.47	8.446
805.65	8.477
805.82	8.612
806.00	8.661
806.17	8.655
806.35	8.608
806.53	8.713
806.70	8.566
806.88	8.482
807.05	8.283
807.23	8.231
807.40	8.228
807.58	8.229
807.76	8.338
807.93	8.310
808.11	8.303
808.28	8.322
808.46	8.283
808.63	8.442
808.81	8.400
808.99	8.444
809.16	8.343
809.34	8.396
809.51	8.164
809.69	8.151
809.86	8.175
810.04	8.035
810.21	7.965
810.39	7.873
810.57	7.851
810.74	8.002
810.92	8.087
811.09	8.192
811.27	8.188
811.44	8.465
811.62	8.419
811.79	8.433
811.97	8.502
812.14	8.560
812.32	8.714
812.49	8.739
812.67	8.617
812.84	8.663
813.02	8.734
813.19	8.832
813.37	8.730
813.55	8.705
813.72	8.592
813.90	8.670
814.07	8.699
814.25	8.769
814.42	8.902
814.60	8.938
814.77	8.911
814.95	8.934
815.12	8.961
815.30	8.953
815.47	9.028
815.65	9.220
815.82	9.301
816.00	9.344
816.17	9.221
816.35	9.097
816.52	9.241
816.69	9.336
816.87	9.361
817.04	9.310
817.22	9.433
817.39	9.508
817.57	9.397
817.74	9.354
817.92	9.449
818.09	9.414
818.27	9.417
818.44	9.357
818.62	9.170
818.79	9.015
818.97	9.072
819.14	8.992
819.32	8.896
819.49	8.959
819.66	9.028
819.84	8.956
820.01	9.026
820.19	9.015
820.36	8.927
820.54	9.015
820.71	9.069
820.89	9.066
821.06	9.145
821.23	9.157
821.41	9.152
821.58	9.069
821.76	9.020
821.93	8.983
822.11	8.933
822.28	8.907
822.45	8.862
822.63	8.839
822.80	8.833
822.98	8.821
823.15	8.810
823.33	8.808
823.50	8.816
823.67	8.817
823.85	8.815
824.02	8.842
824.20	8.878
824.37	8.951
824.54	9.007
824.72	9.045
824.89	9.068
825.07	9.094
825.24	9.123
825.41	9.162
825.59	9.203
825.76	9.298
825.94	9.385
826.11	9.427
826.28	9.428
826.46	9.444
826.63	9.426
826.80	9.477
826.98	9.503
827.15	9.494
827.33	9.484
827.50	9.482
827.67	9.456
827.85	9.442
828.02	9.454
828.19	9.469
828.37	9.498
828.54	9.540
828.72	9.531
828.89	9.550
829.06	9.572
829.24	9.601
829.41	9.649
829.58	9.678
829.76	9.682
829.93	9.724
830.10	9.751
830.28	9.703
830.45	9.775
830.62	9.848
830.80	9.876
830.97	9.844
831.14	9.876
831.32	9.926
831.49	9.953
831.66	10.014
831.84	9.999
832.01	9.937
832.18	10.089
832.36	10.000
832.53	9.996
832.70	10.109
832.88	10.169
833.05	10.194
833.22	10.140
833.40	10.179
833.57	10.122
833.74	10.094
833.91	10.100
834.09	10.060
834.26	10.044
834.43	10.047
834.61	9.962
834.78	9.941
834.95	9.888
835.13	9.928
835.30	9.835
835.47	9.807
835.64	9.795
835.82	9.820
835.99	9.833
836.16	9.869
836.34	9.944
836.51	10.018
836.68	10.047
836.85	10.127
837.03	10.123
837.20	10.264
837.37	10.314
837.54	10.361
837.72	10.298
837.89	10.241
838.06	10.204
838.24	10.034
838.41	10.152
838.58	10.027
838.75	10.082
838.93	10.072
839.10	10.044
839.27	10.267
839.44	10.196
839.62	10.344
839.79	10.378
839.96	10.448
840.13	10.402
840.31	10.305
840.48	10.392
840.65	10.427
840.82	10.426
840.99	10.433
841.17	10.336
841.34	10.475
841.51	10.474
841.68	10.456
841.86	10.313
842.03	10.462
842.20	10.497
842.37	10.460
842.55	10.286
842.72	10.248
842.89	10.099
843.06	10.076
843.23	9.821
843.41	9.745
843.58	9.837
843.75	10.230
843.92	10.138
844.09	10.162
844.27	10.294
844.44	10.523
844.61	10.585
844.78	10.998
844.95	10.900
845.13	11.077
845.30	11.071
845.47	11.124
845.64	11.074
845.81	11.102
845.98	11.015
846.16	11.016
846.33	11.128
846.50	11.335
846.67	11.000
846.84	11.287
847.02	11.493
847.19	11.612
847.36	11.358
847.53	11.156
847.70	10.728
847.87	10.946
848.04	10.927
848.22	10.896
848.39	10.710
848.56	10.733
848.73	10.194
848.90	10.160
849.07	10.089
849.25	10.408
849.42	10.591
849.59	10.911
849.76	10.835
849.93	11.332
850.10	11.240
850.27	11.036
850.45	11.496
850.62	12.116
850.79	11.869
850.96	11.858
851.13	11.973
851.30	11.423
851.47	11.253
851.64	11.340
851.82	11.078
851.99	10.950
852.16	11.272
852.33	11.097
852.50	10.789
852.67	11.378
852.84	11.373
853.01	10.921
853.18	11.538
853.35	11.704
853.53	11.559
853.70	11.659
853.87	11.730
854.04	11.555
854.21	11.624
854.38	11.543
854.55	11.155
854.72	10.874
854.89	11.103
855.06	11.236
855.23	11.328
855.41	11.233
855.58	10.825
855.75	11.079
855.92	10.954
856.09	10.840
856.26	11.127
856.43	11.222
856.60	11.116
856.77	11.079
856.94	10.357
857.11	10.444
857.28	10.758
857.45	11.005
857.62	10.869
857.80	10.788
857.97	10.383
858.14	10.074
858.31	10.314
858.48	10.598
858.65	10.935
858.82	11.628
858.99	11.329
859.16	11.166
859.33	11.289
859.50	11.377
859.67	11.897
859.84	12.174
860.01	12.167
860.18	12.027
860.35	11.985
860.52	11.939
860.69	11.278
860.86	11.799
861.03	11.491
861.20	11.218
861.37	11.112
861.54	11.013
861.71	10.696
861.88	11.132
862.05	10.740
862.22	10.844
862.39	10.698
862.56	11.226
862.73	11.023
862.90	11.337
863.07	11.485
863.24	11.310
863.41	11.046
863.58	11.333
863.75	11.086
863.92	11.280
864.09	11.551
864.26	11.389
864.43	11.221
864.60	11.087
864.77	11.209
864.94	11.731
865.11	11.606
865.28	11.814
865.45	11.973
865.62	12.064
865.79	12.249
865.96	11.772
866.13	11.726
866.30	11.454
866.47	11.206
866.64	10.807
866.81	10.331
866.98	10.985
867.15	11.003
867.32	10.795
867.49	10.534
867.66	10.658
867.82	10.741
867.99	10.761
868.16	11.228
868.33	11.741
868.50	12.109
868.67	12.273
868.84	12.325
869.01	12.397
869.18	12.479
869.35	13.032
869.52	13.233
869.69	13.982
869.86	14.458
870.03	14.428
870.19	14.168
870.36	14.247
870.53	13.938
870.70	13.567
870.87	13.763
871.04	14.050
871.21	13.578
871.38	13.529
871.55	12.806
871.72	12.337
871.89	12.376
872.05	12.255
872.22	11.634
872.39	11.842
872.56	11.890
872.73	11.450
872.90	11.516
873.07	11.955
873.24	11.765
873.41	12.219
873.57	12.342
873.74	12.382
873.91	12.539
874.08	12.777
874.25	12.808
874.42	12.832
874.59	13.181
874.76	13.091
874.92	13.049
875.09	12.717
875.26	12.771
875.43	12.970
875.60	12.756
875.77	12.679
875.94	12.920
876.11	12.902
876.27	12.794
876.44	12.617
876.61	12.506
876.78	12.416
876.95	12.691
877.12	12.561
877.28	12.551
877.45	12.868
877.62	13.095
877.79	13.362
877.96	13.655
878.13	13.593
878.29	13.570
878.46	13.782
878.63	13.878
878.80	13.662
878.97	13.930
879.14	13.975
879.30	13.897
879.47	13.968
879.64	13.744
879.81	13.718
879.98	13.808
880.14	13.853
880.31	13.767
880.48	13.770
880.65	13.964
880.82	13.697
880.98	13.559
881.15	13.431
881.32	13.288
881.49	13.196
881.66	13.073
881.82	12.978
881.99	12.925
882.16	12.868
882.33	12.817
882.50	12.739
882.66	12.747
882.83	12.715
883.00	12.724
883.17	12.750
883.33	12.757
883.50	12.796
883.67	12.860
883.84	12.890
884.01	12.951
884.17	12.964
884.34	12.976
884.51	12.983
884.68	13.056
884.84	13.116
885.01	13.131
885.18	13.156
885.35	13.196
885.51	13.223
885.68	13.254
885.85	13.322
886.02	13.434
886.18	13.619
886.35	13.597
886.52	13.579
886.69	13.402
886.85	13.398
887.02	13.513
887.19	13.589
887.35	13.640
887.52	13.788
887.69	13.828
887.86	13.850
888.02	13.822
888.19	13.883
888.36	14.438
888.53	16.252
888.69	13.965
888.86	14.178
889.03	12.801
>>>>>End Spectral Data<<<<<
