OOIBase32 Version 2.0.6.5 Data File
++++++++++++++++++++++++++++++++++++
Date: 11-17-2016, 11:07:58
User: Valued Ocean Optics Customer
Spectrometer Serial Number: USB4C01507
Spectrometer Channel: Master
Integration Time (msec): 49
Spectra Averaged: 25
Boxcar Smoothing: 5
Correct for Electrical Dark: Enabled
Time Normalized: Disabled
Dual-beam Reference: Disabled
Reference Channel: Master
Temperature: Not acquired
Spectrometer Type: S4000
ADC Type: USB4000
Number of Pixels in File: 3648
Graph Title: 
>>>>>Begin Spectral Data<<<<<
178.53	1531.314
178.74	2158.477
178.96	102.240
179.18	-0.094
179.39	630.486
179.61	-14.026
179.82	27.712
180.04	218.143
180.25	146.245
180.47	28.861
180.69	59.192
180.90	-705.166
181.12	274.521
181.33	204.194
181.55	27.519
181.76	771.323
181.98	102.617
182.20	-314.424
182.41	15.770
182.63	-26.314
182.84	-16.288
183.06	-6.790
183.27	-0.608
183.49	9.813
183.71	-1.240
183.92	-7.348
184.14	-16.086
184.35	-7.183
184.57	-15.133
184.78	1.144
185.00	5.940
185.21	3.934
185.43	5.096
185.65	7.942
185.86	-1.801
186.08	9.765
186.29	16.493
186.51	21.584
186.72	14.905
186.94	20.231
187.15	20.888
187.37	20.966
187.58	22.542
187.80	20.267
188.02	17.948
188.23	18.739
188.45	15.294
188.66	19.419
188.88	20.423
189.09	24.989
189.31	24.588
189.52	19.071
189.74	19.502
189.95	18.812
190.17	18.886
190.38	18.136
190.60	22.528
190.82	31.943
191.03	22.961
191.25	18.142
191.46	9.878
191.68	7.534
191.89	8.976
192.11	4.507
192.32	1.623
192.54	-4.677
192.75	-0.035
192.97	-1.606
193.18	-0.722
193.40	4.129
193.61	2.460
193.83	8.070
194.04	5.415
194.26	9.975
194.48	7.190
194.69	12.491
194.91	11.475
195.12	9.090
195.34	10.589
195.55	7.050
195.77	-3.923
195.98	2.385
196.20	-0.725
196.41	0.604
196.63	-7.381
196.84	-4.608
197.06	-6.045
197.27	-1.843
197.49	-2.535
197.70	0.664
197.92	-0.429
198.13	7.252
198.35	-0.034
198.56	-0.898
198.78	-6.392
198.99	-4.756
199.21	-6.101
199.42	-6.549
199.64	-2.774
199.85	-2.193
200.07	-5.838
200.28	-6.355
200.50	-10.068
200.71	-0.682
200.93	2.731
201.14	3.403
201.36	4.267
201.57	5.303
201.79	6.903
202.00	1.200
202.22	2.681
202.43	3.260
202.65	1.007
202.86	6.179
203.08	-0.541
203.29	-1.621
203.51	0.740
203.72	1.156
203.94	4.632
204.15	6.818
204.37	10.844
204.58	8.143
204.80	10.247
205.01	16.041
205.22	14.302
205.44	16.070
205.65	15.536
205.87	13.834
206.08	17.086
206.30	17.276
206.51	12.027
206.73	10.352
206.94	7.708
207.16	6.245
207.37	1.716
207.59	-1.623
207.80	1.762
208.02	4.227
208.23	8.716
208.45	5.776
208.66	1.211
208.88	5.981
209.09	6.895
209.30	10.459
209.52	6.020
209.73	7.625
209.95	11.923
210.16	5.786
210.38	7.016
210.59	3.901
210.81	1.400
211.02	2.517
211.24	2.005
211.45	2.284
211.66	3.131
211.88	4.718
212.09	1.412
212.31	2.138
212.52	5.018
212.74	1.387
212.95	0.299
213.17	4.068
213.38	5.604
213.60	6.028
213.81	4.943
214.02	4.586
214.24	5.616
214.45	4.466
214.67	1.588
214.88	0.957
215.10	3.027
215.31	4.923
215.53	3.147
215.74	2.376
215.95	3.593
216.17	3.720
216.38	3.674
216.60	0.220
216.81	4.834
217.03	3.933
217.24	4.023
217.45	2.351
217.67	0.577
217.88	1.787
218.10	1.917
218.31	-0.845
218.53	-0.355
218.74	-1.166
218.95	-2.387
219.17	-6.808
219.38	-5.888
219.60	-2.608
219.81	-1.349
220.03	0.713
220.24	-0.612
220.45	-1.410
220.67	-0.162
220.88	0.938
221.10	1.369
221.31	3.175
221.53	3.855
221.74	3.136
221.95	0.731
222.17	-0.072
222.38	0.212
222.60	0.683
222.81	0.895
223.02	0.764
223.24	0.096
223.45	0.578
223.67	0.439
223.88	0.616
224.09	2.017
224.31	3.595
224.52	4.403
224.74	3.172
224.95	3.991
225.16	3.620
225.38	3.458
225.59	3.274
225.81	2.719
226.02	2.929
226.23	2.995
226.45	2.482
226.66	1.917
226.88	2.046
227.09	2.646
227.30	2.227
227.52	2.556
227.73	2.498
227.95	2.516
228.16	2.576
228.37	2.561
228.59	2.625
228.80	2.662
229.02	2.671
229.23	2.677
229.44	2.640
229.66	2.635
229.87	2.585
230.08	2.521
230.30	2.514
230.51	2.593
230.73	2.742
230.94	2.654
231.15	2.524
231.37	2.577
231.58	2.383
231.80	2.323
232.01	2.536
232.22	2.641
232.44	2.929
232.65	3.051
232.86	2.525
233.08	2.242
233.29	2.334
233.51	2.596
233.72	2.621
233.93	2.486
234.15	2.440
234.36	2.275
234.57	2.140
234.79	2.203
235.00	2.100
235.21	2.437
235.43	2.700
235.64	2.518
235.86	2.356
236.07	2.135
236.28	2.224
236.50	1.992
236.71	2.308
236.92	2.430
237.14	2.305
237.35	2.358
237.56	2.546
237.78	2.078
237.99	2.399
238.20	2.391
238.42	2.721
238.63	2.643
238.84	3.202
239.06	2.913
239.27	2.519
239.48	2.488
239.70	2.576
239.91	2.264
240.13	2.159
240.34	2.155
240.55	2.236
240.77	2.253
240.98	2.292
241.19	2.190
241.41	2.139
241.62	2.206
241.83	2.164
242.05	2.131
242.26	2.275
242.47	2.336
242.69	2.271
242.90	2.282
243.11	2.204
243.33	2.182
243.54	2.140
243.75	2.154
243.97	2.208
244.18	2.311
244.39	2.331
244.61	1.969
244.82	2.027
245.03	1.899
245.24	1.960
245.46	2.047
245.67	2.176
245.88	2.191
246.10	2.196
246.31	2.188
246.52	2.108
246.74	2.083
246.95	2.155
247.16	2.175
247.38	2.241
247.59	2.180
247.80	2.220
248.02	2.222
248.23	2.221
248.44	2.256
248.66	2.232
248.87	2.263
249.08	2.343
249.29	2.385
249.51	2.362
249.72	2.380
249.93	2.536
250.15	2.421
250.36	2.260
250.57	2.257
250.79	2.300
251.00	2.361
251.21	2.477
251.42	2.361
251.64	2.300
251.85	2.338
252.06	2.362
252.28	2.284
252.49	2.264
252.70	2.248
252.91	2.231
253.13	2.117
253.34	2.126
253.55	2.077
253.77	2.115
253.98	2.273
254.19	2.061
254.40	1.836
254.62	1.913
254.83	1.758
255.04	1.921
255.26	1.857
255.47	1.855
255.68	1.885
255.89	1.947
256.11	1.884
256.32	1.669
256.53	1.861
256.75	1.879
256.96	1.915
257.17	2.162
257.38	2.148
257.60	2.281
257.81	2.285
258.02	2.238
258.23	2.073
258.45	2.105
258.66	2.136
258.87	2.043
259.09	2.027
259.30	1.971
259.51	1.913
259.72	1.921
259.94	1.897
260.15	1.929
260.36	1.986
260.57	1.986
260.79	1.970
261.00	1.917
261.21	1.945
261.42	1.999
261.64	2.030
261.85	2.042
262.06	1.997
262.27	2.059
262.49	1.949
262.70	1.888
262.91	2.008
263.12	1.990
263.34	2.073
263.55	2.045
263.76	1.908
263.97	2.041
264.19	2.080
264.40	2.082
264.61	1.970
264.82	2.036
265.04	1.973
265.25	1.939
265.46	1.903
265.67	1.871
265.88	1.919
266.10	1.924
266.31	1.808
266.52	1.844
266.73	1.956
266.95	1.987
267.16	1.982
267.37	1.961
267.58	1.919
267.80	2.035
268.01	2.086
268.22	2.080
268.43	2.068
268.64	2.148
268.86	2.090
269.07	1.989
269.28	1.892
269.49	1.840
269.71	1.867
269.92	1.785
270.13	1.782
270.34	1.782
270.55	1.806
270.77	1.942
270.98	1.950
271.19	2.031
271.40	2.029
271.61	1.955
271.83	1.969
272.04	1.869
272.25	1.982
272.46	1.947
272.68	1.948
272.89	1.905
273.10	1.869
273.31	1.785
273.52	1.738
273.74	1.688
273.95	1.703
274.16	1.768
274.37	1.828
274.58	1.827
274.80	1.784
275.01	1.757
275.22	1.819
275.43	1.884
275.64	1.974
275.86	1.944
276.07	1.927
276.28	2.109
276.49	2.006
276.70	1.955
276.91	1.882
277.13	1.839
277.34	1.896
277.55	1.876
277.76	1.736
277.97	1.662
278.19	1.667
278.40	1.751
278.61	1.710
278.82	1.744
279.03	1.715
279.24	1.707
279.46	1.820
279.67	1.780
279.88	1.731
280.09	1.798
280.30	1.888
280.52	2.008
280.73	2.010
280.94	1.970
281.15	1.961
281.36	2.076
281.57	2.165
281.79	2.195
282.00	2.141
282.21	2.095
282.42	2.087
282.63	2.088
282.84	1.993
283.06	1.979
283.27	1.983
283.48	2.066
283.69	1.975
283.90	1.919
284.11	1.835
284.32	1.887
284.54	1.917
284.75	1.861
284.96	1.759
285.17	1.807
285.38	1.822
285.59	1.829
285.81	1.835
286.02	1.903
286.23	1.865
286.44	1.946
286.65	1.916
286.86	1.881
287.07	1.799
287.29	1.798
287.50	1.801
287.71	1.827
287.92	1.827
288.13	1.753
288.34	1.736
288.55	1.805
288.77	1.745
288.98	1.714
289.19	1.760
289.40	1.871
289.61	1.957
289.82	1.837
290.03	1.779
290.24	1.787
290.46	1.724
290.67	1.769
290.88	1.775
291.09	1.750
291.30	1.805
291.51	1.864
291.72	1.860
291.93	1.831
292.15	1.941
292.36	2.076
292.57	2.011
292.78	2.062
292.99	1.927
293.20	2.012
293.41	1.891
293.62	1.852
293.84	1.831
294.05	1.834
294.26	1.776
294.47	1.735
294.68	1.652
294.89	1.736
295.10	1.724
295.31	1.770
295.52	1.650
295.73	1.706
295.95	1.780
296.16	1.769
296.37	1.839
296.58	1.886
296.79	1.911
297.00	1.910
297.21	1.880
297.42	1.888
297.63	1.895
297.84	1.975
298.06	1.959
298.27	1.952
298.48	1.949
298.69	1.841
298.90	1.808
299.11	1.823
299.32	1.804
299.53	1.840
299.74	1.895
299.95	1.926
300.16	1.811
300.38	1.888
300.59	1.806
300.80	1.810
301.01	1.842
301.22	1.858
301.43	1.847
301.64	1.944
301.85	1.833
302.06	1.777
302.27	1.720
302.48	1.778
302.69	1.699
302.91	1.709
303.12	1.717
303.33	1.731
303.54	1.764
303.75	1.716
303.96	1.655
304.17	1.764
304.38	1.734
304.59	1.818
304.80	1.846
305.01	1.937
305.22	1.926
305.43	1.932
305.64	1.891
305.85	1.817
306.06	1.899
306.28	1.891
306.49	1.878
306.70	1.889
306.91	1.732
307.12	1.669
307.33	1.489
307.54	1.573
307.75	1.528
307.96	1.584
308.17	1.629
308.38	1.533
308.59	1.556
308.80	1.470
309.01	1.506
309.22	1.552
309.43	1.559
309.64	1.661
309.85	1.599
310.06	1.658
310.27	1.664
310.48	1.683
310.70	1.679
310.91	1.631
311.12	1.645
311.33	1.641
311.54	1.574
311.75	1.537
311.96	1.552
312.17	1.564
312.38	1.530
312.59	1.523
312.80	1.463
313.01	1.498
313.22	1.533
313.43	1.549
313.64	1.483
313.85	1.538
314.06	1.588
314.27	1.599
314.48	1.602
314.69	1.598
314.90	1.613
315.11	1.772
315.32	1.740
315.53	1.730
315.74	1.703
315.95	1.768
316.16	1.816
316.37	1.728
316.58	1.720
316.79	1.708
317.00	1.694
317.21	1.667
317.42	1.471
317.63	1.496
317.84	1.390
318.05	1.347
318.26	1.321
318.47	1.317
318.68	1.377
318.89	1.365
319.10	1.310
319.31	1.244
319.52	1.230
319.73	1.290
319.94	1.292
320.15	1.278
320.36	1.328
320.57	1.349
320.78	1.301
320.99	1.239
321.20	1.205
321.41	1.233
321.62	1.193
321.83	1.239
322.04	1.228
322.25	1.206
322.46	1.258
322.67	1.287
322.88	1.254
323.09	1.283
323.30	1.255
323.51	1.241
323.72	1.237
323.93	1.235
324.14	1.245
324.35	1.260
324.56	1.224
324.77	1.239
324.98	1.224
325.19	1.178
325.40	1.200
325.61	1.310
325.82	1.336
326.03	1.357
326.24	1.444
326.45	1.410
326.65	1.376
326.86	1.398
327.07	1.427
327.28	1.454
327.49	1.506
327.70	1.438
327.91	1.346
328.12	1.349
328.33	1.326
328.54	1.330
328.75	1.374
328.96	1.385
329.17	1.364
329.38	1.325
329.59	1.308
329.80	1.338
330.01	1.415
330.22	1.439
330.43	1.370
330.64	1.396
330.85	1.361
331.05	1.251
331.26	1.241
331.47	1.223
331.68	1.264
331.89	1.252
332.10	1.185
332.31	1.155
332.52	1.166
332.73	1.167
332.94	1.200
333.15	1.191
333.36	1.266
333.57	1.267
333.78	1.269
333.99	1.234
334.19	1.191
334.40	1.232
334.61	1.240
334.82	1.302
335.03	1.355
335.24	1.315
335.45	1.381
335.66	1.422
335.87	1.415
336.08	1.451
336.29	1.441
336.50	1.461
336.71	1.526
336.91	1.488
337.12	1.340
337.33	1.336
337.54	1.367
337.75	1.283
337.96	1.219
338.17	1.262
338.38	1.236
338.59	1.329
338.80	1.263
339.01	1.190
339.21	1.210
339.42	1.326
339.63	1.318
339.84	1.324
340.05	1.331
340.26	1.317
340.47	1.327
340.68	1.371
340.89	1.247
341.10	1.338
341.30	1.363
341.51	1.340
341.72	1.341
341.93	1.390
342.14	1.344
342.35	1.360
342.56	1.359
342.77	1.292
342.98	1.248
343.18	1.321
343.39	1.267
343.60	1.212
343.81	1.237
344.02	1.236
344.23	1.168
344.44	1.189
344.65	1.178
344.85	1.160
345.06	1.239
345.27	1.255
345.48	1.183
345.69	1.268
345.90	1.333
346.11	1.370
346.32	1.343
346.52	1.339
346.73	1.342
346.94	1.380
347.15	1.395
347.36	1.322
347.57	1.319
347.78	1.383
347.98	1.366
348.19	1.352
348.40	1.313
348.61	1.349
348.82	1.405
349.03	1.372
349.24	1.350
349.44	1.357
349.65	1.376
349.86	1.379
350.07	1.379
350.28	1.372
350.49	1.361
350.70	1.362
350.90	1.307
351.11	1.243
351.32	1.251
351.53	1.282
351.74	1.246
351.95	1.239
352.15	1.227
352.36	1.184
352.57	1.154
352.78	1.196
352.99	1.202
353.20	1.296
353.40	1.300
353.61	1.276
353.82	1.245
354.03	1.316
354.24	1.322
354.45	1.340
354.65	1.411
354.86	1.462
355.07	1.387
355.28	1.417
355.49	1.386
355.70	1.384
355.90	1.406
356.11	1.410
356.32	1.407
356.53	1.432
356.74	1.448
356.94	1.403
357.15	1.362
357.36	1.383
357.57	1.339
357.78	1.276
357.99	1.312
358.19	1.299
358.40	1.309
358.61	1.335
358.82	1.340
359.03	1.353
359.23	1.366
359.44	1.371
359.65	1.374
359.86	1.423
360.07	1.481
360.27	1.495
360.48	1.505
360.69	1.513
360.90	1.496
361.11	1.530
361.31	1.513
361.52	1.532
361.73	1.537
361.94	1.574
362.15	1.537
362.35	1.508
362.56	1.546
362.77	1.558
362.98	1.549
363.18	1.511
363.39	1.438
363.60	1.451
363.81	1.437
364.02	1.447
364.22	1.439
364.43	1.465
364.64	1.471
364.85	1.408
365.05	1.406
365.26	1.407
365.47	1.438
365.68	1.474
365.89	1.460
366.09	1.475
366.30	1.459
366.51	1.404
366.72	1.371
366.92	1.406
367.13	1.456
367.34	1.454
367.55	1.429
367.75	1.428
367.96	1.429
368.17	1.425
368.38	1.426
368.58	1.425
368.79	1.449
369.00	1.516
369.21	1.493
369.41	1.486
369.62	1.468
369.83	1.478
370.04	1.450
370.24	1.477
370.45	1.506
370.66	1.522
370.87	1.481
371.07	1.469
371.28	1.400
371.49	1.396
371.70	1.386
371.90	1.422
372.11	1.422
372.32	1.470
372.53	1.412
372.73	1.389
372.94	1.329
373.15	1.387
373.36	1.401
373.56	1.457
373.77	1.460
373.98	1.485
374.19	1.490
374.39	1.523
374.60	1.499
374.81	1.515
375.01	1.518
375.22	1.502
375.43	1.468
375.64	1.460
375.84	1.433
376.05	1.445
376.26	1.410
376.46	1.384
376.67	1.346
376.88	1.355
377.09	1.374
377.29	1.376
377.50	1.401
377.71	1.415
377.91	1.430
378.12	1.446
378.33	1.434
378.54	1.433
378.74	1.422
378.95	1.450
379.16	1.436
379.36	1.425
379.57	1.407
379.78	1.438
379.99	1.453
380.19	1.459
380.40	1.434
380.61	1.429
380.81	1.427
381.02	1.462
381.23	1.453
381.43	1.461
381.64	1.471
381.85	1.454
382.05	1.428
382.26	1.431
382.47	1.395
382.67	1.423
382.88	1.407
383.09	1.418
383.30	1.415
383.50	1.432
383.71	1.412
383.92	1.414
384.12	1.462
384.33	1.441
384.54	1.437
384.74	1.484
384.95	1.457
385.16	1.461
385.36	1.472
385.57	1.469
385.78	1.457
385.98	1.480
386.19	1.462
386.40	1.444
386.60	1.479
386.81	1.462
387.02	1.456
387.22	1.463
387.43	1.483
387.64	1.479
387.84	1.471
388.05	1.493
388.26	1.487
388.46	1.476
388.67	1.491
388.88	1.490
389.08	1.503
389.29	1.489
389.49	1.466
389.70	1.471
389.91	1.457
390.11	1.443
390.32	1.418
390.53	1.439
390.73	1.464
390.94	1.466
391.15	1.468
391.35	1.466
391.56	1.476
391.77	1.520
391.97	1.513
392.18	1.538
392.38	1.573
392.59	1.593
392.80	1.555
393.00	1.543
393.21	1.542
393.42	1.550
393.62	1.561
393.83	1.549
394.04	1.537
394.24	1.523
394.45	1.503
394.65	1.502
394.86	1.512
395.07	1.550
395.27	1.551
395.48	1.506
395.68	1.519
395.89	1.501
396.10	1.515
396.30	1.490
396.51	1.534
396.72	1.526
396.92	1.498
397.13	1.481
397.33	1.447
397.54	1.458
397.75	1.489
397.95	1.487
398.16	1.478
398.36	1.474
398.57	1.476
398.78	1.426
398.98	1.439
399.19	1.450
399.39	1.450
399.60	1.463
399.81	1.468
400.01	1.495
400.22	1.476
400.42	1.510
400.63	1.496
400.84	1.505
401.04	1.533
401.25	1.529
401.45	1.528
401.66	1.538
401.86	1.537
402.07	1.544
402.28	1.535
402.48	1.509
402.69	1.515
402.89	1.537
403.10	1.554
403.31	1.564
403.51	1.553
403.72	1.570
403.92	1.560
404.13	1.542
404.33	1.536
404.54	1.529
404.75	1.527
404.95	1.538
405.16	1.517
405.36	1.510
405.57	1.495
405.77	1.513
405.98	1.501
406.18	1.513
406.39	1.526
406.60	1.510
406.80	1.492
407.01	1.509
407.21	1.467
407.42	1.500
407.62	1.516
407.83	1.509
408.03	1.488
408.24	1.499
408.45	1.468
408.65	1.488
408.86	1.507
409.06	1.527
409.27	1.522
409.47	1.505
409.68	1.478
409.88	1.487
410.09	1.502
410.29	1.512
410.50	1.518
410.71	1.530
410.91	1.540
411.12	1.539
411.32	1.539
411.53	1.550
411.73	1.591
411.94	1.573
412.14	1.570
412.35	1.563
412.55	1.573
412.76	1.554
412.96	1.558
413.17	1.544
413.37	1.553
413.58	1.558
413.78	1.569
413.99	1.577
414.19	1.642
414.40	1.640
414.61	1.653
414.81	1.656
415.02	1.652
415.22	1.651
415.43	1.641
415.63	1.633
415.84	1.619
416.04	1.610
416.25	1.597
416.45	1.562
416.66	1.567
416.86	1.563
417.07	1.554
417.27	1.558
417.48	1.558
417.68	1.566
417.89	1.573
418.09	1.590
418.30	1.586
418.50	1.565
418.71	1.572
418.91	1.562
419.12	1.553
419.32	1.551
419.53	1.548
419.73	1.546
419.94	1.555
420.14	1.537
420.34	1.537
420.55	1.539
420.75	1.552
420.96	1.548
421.16	1.551
421.37	1.553
421.57	1.565
421.78	1.568
421.98	1.561
422.19	1.554
422.39	1.571
422.60	1.564
422.80	1.568
423.01	1.562
423.21	1.573
423.42	1.566
423.62	1.564
423.83	1.548
424.03	1.546
424.23	1.559
424.44	1.555
424.64	1.558
424.85	1.556
425.05	1.562
425.26	1.573
425.46	1.575
425.67	1.564
425.87	1.570
426.08	1.600
426.28	1.595
426.48	1.602
426.69	1.626
426.89	1.624
427.10	1.650
427.30	1.665
427.51	1.681
427.71	1.656
427.92	1.664
428.12	1.649
428.32	1.611
428.53	1.603
428.73	1.588
428.94	1.573
429.14	1.572
429.35	1.548
429.55	1.528
429.76	1.531
429.96	1.547
430.16	1.572
430.37	1.594
430.57	1.616
430.78	1.657
430.98	1.669
431.19	1.679
431.39	1.651
431.59	1.651
431.80	1.654
432.00	1.621
432.21	1.622
432.41	1.604
432.61	1.603
432.82	1.597
433.02	1.589
433.23	1.579
433.43	1.574
433.64	1.595
433.84	1.602
434.04	1.603
434.25	1.612
434.45	1.612
434.66	1.623
434.86	1.621
435.06	1.616
435.27	1.614
435.47	1.621
435.68	1.593
435.88	1.582
436.08	1.576
436.29	1.567
436.49	1.582
436.70	1.584
436.90	1.601
437.10	1.621
437.31	1.625
437.51	1.607
437.71	1.607
437.92	1.619
438.12	1.605
438.33	1.611
438.53	1.607
438.73	1.602
438.94	1.595
439.14	1.588
439.35	1.575
439.55	1.588
439.75	1.606
439.96	1.603
440.16	1.612
440.36	1.634
440.57	1.631
440.77	1.638
440.97	1.642
441.18	1.639
441.38	1.653
441.59	1.664
441.79	1.651
441.99	1.650
442.20	1.639
442.40	1.629
442.60	1.621
442.81	1.606
443.01	1.598
443.21	1.583
443.42	1.576
443.62	1.556
443.83	1.562
444.03	1.578
444.23	1.577
444.44	1.587
444.64	1.588
444.84	1.582
445.05	1.594
445.25	1.596
445.45	1.605
445.66	1.618
445.86	1.615
446.06	1.604
446.27	1.601
446.47	1.597
446.67	1.607
446.88	1.610
447.08	1.620
447.28	1.629
447.49	1.632
447.69	1.631
447.89	1.639
448.10	1.643
448.30	1.650
448.50	1.637
448.71	1.644
448.91	1.637
449.11	1.647
449.32	1.657
449.52	1.652
449.72	1.662
449.93	1.651
450.13	1.645
450.33	1.658
450.53	1.641
450.74	1.660
450.94	1.656
451.14	1.662
451.35	1.659
451.55	1.635
451.75	1.644
451.96	1.622
452.16	1.641
452.36	1.632
452.57	1.635
452.77	1.667
452.97	1.648
453.17	1.644
453.38	1.648
453.58	1.642
453.78	1.630
453.99	1.621
454.19	1.646
454.39	1.642
454.59	1.644
454.80	1.639
455.00	1.623
455.20	1.632
455.41	1.620
455.61	1.616
455.81	1.629
456.01	1.647
456.22	1.647
456.42	1.632
456.62	1.640
456.83	1.654
457.03	1.648
457.23	1.641
457.43	1.643
457.64	1.681
457.84	1.670
458.04	1.665
458.25	1.668
458.45	1.677
458.65	1.673
458.85	1.666
459.06	1.648
459.26	1.645
459.46	1.648
459.66	1.657
459.87	1.655
460.07	1.662
460.27	1.665
460.47	1.659
460.68	1.656
460.88	1.661
461.08	1.662
461.28	1.677
461.49	1.676
461.69	1.678
461.89	1.679
462.09	1.673
462.30	1.662
462.50	1.671
462.70	1.695
462.90	1.690
463.11	1.725
463.31	1.719
463.51	1.713
463.71	1.710
463.92	1.723
464.12	1.712
464.32	1.711
464.52	1.722
464.72	1.713
464.93	1.692
465.13	1.677
465.33	1.632
465.53	1.639
465.74	1.649
465.94	1.659
466.14	1.646
466.34	1.649
466.54	1.640
466.75	1.627
466.95	1.617
467.15	1.624
467.35	1.636
467.56	1.648
467.76	1.660
467.96	1.658
468.16	1.656
468.36	1.644
468.57	1.654
468.77	1.669
468.97	1.676
469.17	1.683
469.37	1.678
469.58	1.672
469.78	1.675
469.98	1.668
470.18	1.655
470.38	1.659
470.59	1.675
470.79	1.669
470.99	1.654
471.19	1.658
471.39	1.652
471.60	1.644
471.80	1.661
472.00	1.655
472.20	1.659
472.40	1.678
472.61	1.674
472.81	1.677
473.01	1.677
473.21	1.683
473.41	1.670
473.61	1.682
473.82	1.719
474.02	1.696
474.22	1.703
474.42	1.698
474.62	1.689
474.82	1.687
475.03	1.699
475.23	1.699
475.43	1.705
475.63	1.720
475.83	1.713
476.03	1.694
476.24	1.690
476.44	1.697
476.64	1.692
476.84	1.694
477.04	1.694
477.24	1.684
477.45	1.681
477.65	1.691
477.85	1.685
478.05	1.684
478.25	1.674
478.45	1.686
478.65	1.674
478.86	1.674
479.06	1.666
479.26	1.683
479.46	1.683
479.66	1.680
479.86	1.674
480.06	1.688
480.27	1.682
480.47	1.684
480.67	1.685
480.87	1.687
481.07	1.695
481.27	1.710
481.47	1.711
481.68	1.713
481.88	1.729
482.08	1.726
482.28	1.727
482.48	1.747
482.68	1.750
482.88	1.744
483.08	1.758
483.29	1.762
483.49	1.753
483.69	1.736
483.89	1.737
484.09	1.732
484.29	1.733
484.49	1.732
484.69	1.730
484.89	1.732
485.10	1.742
485.30	1.734
485.50	1.732
485.70	1.735
485.90	1.753
486.10	1.758
486.30	1.764
486.50	1.763
486.70	1.758
486.90	1.748
487.11	1.743
487.31	1.738
487.51	1.730
487.71	1.724
487.91	1.730
488.11	1.732
488.31	1.732
488.51	1.732
488.71	1.735
488.91	1.741
489.11	1.746
489.32	1.757
489.52	1.755
489.72	1.767
489.92	1.774
490.12	1.781
490.32	1.782
490.52	1.771
490.72	1.761
490.92	1.755
491.12	1.747
491.32	1.749
491.52	1.739
491.72	1.744
491.92	1.747
492.13	1.747
492.33	1.743
492.53	1.749
492.73	1.757
492.93	1.769
493.13	1.778
493.33	1.789
493.53	1.794
493.73	1.800
493.93	1.796
494.13	1.798
494.33	1.792
494.53	1.801
494.73	1.790
494.93	1.790
495.13	1.779
495.33	1.774
495.53	1.762
495.73	1.759
495.94	1.772
496.14	1.777
496.34	1.769
496.54	1.773
496.74	1.768
496.94	1.774
497.14	1.764
497.34	1.770
497.54	1.774
497.74	1.777
497.94	1.784
498.14	1.776
498.34	1.782
498.54	1.786
498.74	1.784
498.94	1.783
499.14	1.778
499.34	1.784
499.54	1.778
499.74	1.782
499.94	1.783
500.14	1.773
500.34	1.780
500.54	1.781
500.74	1.776
500.94	1.783
501.14	1.785
501.34	1.784
501.54	1.791
501.74	1.776
501.94	1.771
502.14	1.779
502.34	1.791
502.54	1.790
502.74	1.785
502.94	1.785
503.14	1.780
503.34	1.781
503.54	1.784
503.74	1.779
503.94	1.799
504.14	1.802
504.34	1.805
504.54	1.806
504.74	1.804
504.94	1.795
505.14	1.817
505.34	1.831
505.54	1.831
505.74	1.828
505.94	1.828
506.14	1.831
506.34	1.837
506.54	1.837
506.74	1.832
506.94	1.823
507.14	1.828
507.34	1.816
507.54	1.808
507.74	1.797
507.94	1.802
508.14	1.804
508.34	1.806
508.54	1.806
508.74	1.799
508.94	1.800
509.13	1.816
509.33	1.812
509.53	1.818
509.73	1.824
509.93	1.828
510.13	1.827
510.33	1.833
510.53	1.825
510.73	1.831
510.93	1.838
511.13	1.838
511.33	1.835
511.53	1.843
511.73	1.834
511.93	1.836
512.13	1.844
512.33	1.854
512.53	1.847
512.73	1.849
512.92	1.849
513.12	1.856
513.32	1.866
513.52	1.873
513.72	1.873
513.92	1.876
514.12	1.882
514.32	1.883
514.52	1.868
514.72	1.867
514.92	1.866
515.12	1.857
515.32	1.845
515.52	1.840
515.71	1.839
515.91	1.847
516.11	1.853
516.31	1.846
516.51	1.832
516.71	1.838
516.91	1.852
517.11	1.864
517.31	1.856
517.51	1.857
517.71	1.860
517.90	1.865
518.10	1.860
518.30	1.851
518.50	1.846
518.70	1.855
518.90	1.861
519.10	1.850
519.30	1.840
519.50	1.854
519.69	1.861
519.89	1.857
520.09	1.848
520.29	1.854
520.49	1.856
520.69	1.872
520.89	1.880
521.09	1.877
521.29	1.883
521.48	1.891
521.68	1.874
521.88	1.862
522.08	1.879
522.28	1.886
522.48	1.876
522.68	1.898
522.88	1.896
523.07	1.896
523.27	1.905
523.47	1.916
523.67	1.918
523.87	1.941
524.07	1.947
524.27	1.938
524.47	1.924
524.66	1.932
524.86	1.924
525.06	1.916
525.26	1.917
525.46	1.912
525.66	1.914
525.85	1.921
526.05	1.918
526.25	1.920
526.45	1.921
526.65	1.936
526.85	1.941
527.05	1.952
527.24	1.958
527.44	1.954
527.64	1.947
527.84	1.937
528.04	1.927
528.24	1.919
528.43	1.918
528.63	1.919
528.83	1.918
529.03	1.917
529.23	1.911
529.43	1.910
529.62	1.914
529.82	1.916
530.02	1.924
530.22	1.931
530.42	1.945
530.62	1.951
530.81	1.953
531.01	1.952
531.21	1.954
531.41	1.958
531.61	1.965
531.80	1.966
532.00	1.969
532.20	1.968
532.40	1.972
532.60	1.970
532.79	1.963
532.99	1.959
533.19	1.965
533.39	1.967
533.59	1.972
533.78	1.969
533.98	1.966
534.18	1.977
534.38	1.980
534.58	1.983
534.77	1.985
534.97	2.000
535.17	2.005
535.37	2.003
535.57	2.004
535.76	1.997
535.96	1.993
536.16	1.988
536.36	1.984
536.56	1.979
536.75	1.972
536.95	1.981
537.15	1.983
537.35	1.996
537.54	2.000
537.74	1.996
537.94	2.001
538.14	2.014
538.34	2.027
538.53	2.035
538.73	2.042
538.93	2.047
539.13	2.042
539.32	2.030
539.52	2.016
539.72	2.012
539.92	2.017
540.11	2.009
540.31	1.992
540.51	1.982
540.71	1.968
540.90	1.962
541.10	1.960
541.30	1.960
541.50	1.965
541.69	1.969
541.89	1.973
542.09	1.982
542.29	1.985
542.48	1.988
542.68	1.996
542.88	2.006
543.08	2.017
543.27	2.035
543.47	2.036
543.67	2.043
543.87	2.048
544.06	2.039
544.26	2.026
544.46	2.022
544.65	2.030
544.85	2.027
545.05	2.032
545.25	2.030
545.44	2.016
545.64	2.021
545.84	2.013
546.04	2.011
546.23	2.016
546.43	2.011
546.63	2.019
546.82	2.018
547.02	2.016
547.22	2.023
547.42	2.022
547.61	2.027
547.81	2.029
548.01	2.036
548.20	2.033
548.40	2.042
548.60	2.053
548.79	2.043
548.99	2.048
549.19	2.056
549.39	2.036
549.58	2.048
549.78	2.036
549.98	2.032
550.17	2.027
550.37	2.032
550.57	2.026
550.76	2.018
550.96	2.030
551.16	2.033
551.35	2.024
551.55	2.028
551.75	2.011
551.94	2.011
552.14	2.013
552.34	2.007
552.53	2.009
552.73	2.017
552.93	2.029
553.13	2.034
553.32	2.030
553.52	2.042
553.72	2.044
553.91	2.043
554.11	2.049
554.31	2.062
554.50	2.059
554.70	2.066
554.89	2.068
555.09	2.072
555.29	2.060
555.48	2.069
555.68	2.062
555.88	2.060
556.07	2.071
556.27	2.070
556.47	2.056
556.66	2.064
556.86	2.059
557.06	2.059
557.25	2.039
557.45	2.049
557.65	2.042
557.84	2.043
558.04	2.035
558.23	2.029
558.43	2.039
558.63	2.045
558.82	2.039
559.02	2.031
559.22	2.027
559.41	2.045
559.61	2.033
559.81	2.039
560.00	2.039
560.20	2.055
560.39	2.070
560.59	2.070
560.79	2.070
560.98	2.087
561.18	2.090
561.37	2.093
561.57	2.099
561.77	2.105
561.96	2.106
562.16	2.112
562.36	2.121
562.55	2.128
562.75	2.122
562.94	2.129
563.14	2.121
563.34	2.127
563.53	2.120
563.73	2.108
563.92	2.121
564.12	2.107
564.32	2.107
564.51	2.104
564.71	2.097
564.90	2.092
565.10	2.087
565.29	2.097
565.49	2.098
565.69	2.105
565.88	2.104
566.08	2.095
566.27	2.104
566.47	2.105
566.67	2.112
566.86	2.119
567.06	2.122
567.25	2.125
567.45	2.124
567.64	2.120
567.84	2.130
568.04	2.137
568.23	2.133
568.43	2.147
568.62	2.145
568.82	2.135
569.01	2.120
569.21	2.123
569.41	2.141
569.60	2.143
569.80	2.149
569.99	2.149
570.19	2.170
570.38	2.172
570.58	2.177
570.77	2.184
570.97	2.192
571.17	2.196
571.36	2.206
571.56	2.198
571.75	2.197
571.95	2.203
572.14	2.204
572.34	2.193
572.53	2.204
572.73	2.200
572.92	2.211
573.12	2.207
573.31	2.211
573.51	2.216
573.70	2.217
573.90	2.219
574.10	2.201
574.29	2.204
574.49	2.208
574.68	2.208
574.88	2.194
575.07	2.191
575.27	2.195
575.46	2.192
575.66	2.195
575.85	2.186
576.05	2.179
576.24	2.193
576.44	2.179
576.63	2.180
576.83	2.183
577.02	2.189
577.22	2.177
577.41	2.173
577.61	2.162
577.80	2.150
578.00	2.142
578.19	2.152
578.39	2.143
578.58	2.141
578.78	2.139
578.97	2.134
579.17	2.137
579.36	2.124
579.56	2.140
579.75	2.160
579.95	2.167
580.14	2.178
580.34	2.174
580.53	2.184
580.73	2.195
580.92	2.203
581.12	2.212
581.31	2.215
581.51	2.224
581.70	2.222
581.89	2.222
582.09	2.221
582.28	2.212
582.48	2.230
582.67	2.229
582.87	2.233
583.06	2.215
583.26	2.200
583.45	2.200
583.65	2.223
583.84	2.225
584.04	2.219
584.23	2.233
584.43	2.249
584.62	2.240
584.81	2.249
585.01	2.231
585.20	2.232
585.40	2.241
585.59	2.243
585.79	2.225
585.98	2.239
586.18	2.257
586.37	2.235
586.56	2.226
586.76	2.219
586.95	2.218
587.15	2.235
587.34	2.249
587.54	2.245
587.73	2.250
587.92	2.256
588.12	2.244
588.31	2.235
588.51	2.243
588.70	2.252
588.90	2.251
589.09	2.264
589.28	2.257
589.48	2.250
589.67	2.255
589.87	2.240
590.06	2.244
590.25	2.246
590.45	2.257
590.64	2.269
590.84	2.274
591.03	2.288
591.23	2.270
591.42	2.292
591.61	2.295
591.81	2.296
592.00	2.305
592.20	2.310
592.39	2.298
592.58	2.291
592.78	2.287
592.97	2.282
593.17	2.293
593.36	2.298
593.55	2.296
593.75	2.311
593.94	2.319
594.13	2.330
594.33	2.326
594.52	2.344
594.72	2.345
594.91	2.363
595.10	2.365
595.30	2.347
595.49	2.352
595.68	2.356
595.88	2.344
596.07	2.324
596.27	2.319
596.46	2.318
596.65	2.299
596.85	2.293
597.04	2.279
597.23	2.290
597.43	2.298
597.62	2.299
597.81	2.279
598.01	2.298
598.20	2.316
598.40	2.326
598.59	2.321
598.78	2.357
598.98	2.367
599.17	2.380
599.36	2.358
599.56	2.376
599.75	2.359
599.94	2.388
600.14	2.372
600.33	2.386
600.52	2.379
600.72	2.408
600.91	2.391
601.10	2.385
601.30	2.372
601.49	2.388
601.68	2.362
601.88	2.388
602.07	2.384
602.26	2.385
602.46	2.377
602.65	2.387
602.84	2.394
603.04	2.398
603.23	2.400
603.42	2.423
603.62	2.422
603.81	2.443
604.00	2.451
604.20	2.443
604.39	2.451
604.58	2.453
604.77	2.452
604.97	2.452
605.16	2.448
605.35	2.451
605.55	2.448
605.74	2.457
605.93	2.454
606.13	2.452
606.32	2.459
606.51	2.468
606.70	2.477
606.90	2.481
607.09	2.490
607.28	2.513
607.48	2.518
607.67	2.507
607.86	2.497
608.05	2.513
608.25	2.488
608.44	2.491
608.63	2.492
608.83	2.494
609.02	2.484
609.21	2.468
609.40	2.453
609.60	2.470
609.79	2.476
609.98	2.475
610.17	2.478
610.37	2.485
610.56	2.484
610.75	2.475
610.95	2.469
611.14	2.468
611.33	2.472
611.52	2.484
611.72	2.472
611.91	2.463
612.10	2.468
612.29	2.445
612.49	2.455
612.68	2.449
612.87	2.448
613.06	2.452
613.26	2.470
613.45	2.479
613.64	2.492
613.83	2.481
614.03	2.498
614.22	2.508
614.41	2.512
614.60	2.517
614.79	2.538
614.99	2.545
615.18	2.536
615.37	2.532
615.56	2.509
615.76	2.524
615.95	2.540
616.14	2.531
616.33	2.530
616.53	2.533
616.72	2.538
616.91	2.525
617.10	2.515
617.29	2.516
617.49	2.521
617.68	2.543
617.87	2.512
618.06	2.511
618.25	2.506
618.45	2.502
618.64	2.501
618.83	2.515
619.02	2.524
619.21	2.548
619.41	2.563
619.60	2.575
619.79	2.560
619.98	2.575
620.17	2.581
620.37	2.593
620.56	2.599
620.75	2.606
620.94	2.599
621.13	2.608
621.33	2.581
621.52	2.558
621.71	2.567
621.90	2.586
622.09	2.554
622.28	2.559
622.48	2.550
622.67	2.554
622.86	2.544
623.05	2.534
623.24	2.532
623.44	2.567
623.63	2.592
623.82	2.586
624.01	2.558
624.20	2.575
624.39	2.558
624.59	2.577
624.78	2.591
624.97	2.603
625.16	2.617
625.35	2.604
625.54	2.597
625.73	2.589
625.93	2.571
626.12	2.602
626.31	2.615
626.50	2.624
626.69	2.631
626.88	2.627
627.07	2.621
627.27	2.613
627.46	2.638
627.65	2.640
627.84	2.649
628.03	2.652
628.22	2.642
628.41	2.642
628.61	2.663
628.80	2.651
628.99	2.654
629.18	2.666
629.37	2.674
629.56	2.661
629.75	2.658
629.94	2.675
630.14	2.675
630.33	2.695
630.52	2.695
630.71	2.678
630.90	2.689
631.09	2.691
631.28	2.697
631.47	2.689
631.66	2.681
631.86	2.693
632.05	2.672
632.24	2.688
632.43	2.667
632.62	2.655
632.81	2.654
633.00	2.663
633.19	2.653
633.38	2.637
633.57	2.639
633.77	2.635
633.96	2.649
634.15	2.656
634.34	2.664
634.53	2.673
634.72	2.690
634.91	2.694
635.10	2.693
635.29	2.713
635.48	2.741
635.67	2.753
635.86	2.774
636.05	2.760
636.25	2.770
636.44	2.778
636.63	2.801
636.82	2.820
637.01	2.837
637.20	2.843
637.39	2.836
637.58	2.837
637.77	2.834
637.96	2.836
638.15	2.839
638.34	2.833
638.53	2.822
638.72	2.803
638.91	2.793
639.10	2.811
639.30	2.812
639.49	2.818
639.68	2.798
639.87	2.802
640.06	2.797
640.25	2.812
640.44	2.807
640.63	2.803
640.82	2.781
641.01	2.779
641.20	2.750
641.39	2.736
641.58	2.744
641.77	2.752
641.96	2.753
642.15	2.772
642.34	2.769
642.53	2.789
642.72	2.804
642.91	2.834
643.10	2.841
643.29	2.866
643.48	2.869
643.67	2.840
643.86	2.875
644.05	2.921
644.24	2.903
644.43	2.914
644.62	2.927
644.81	2.890
645.00	2.882
645.19	2.883
645.38	2.840
645.57	2.850
645.76	2.870
645.95	2.854
646.14	2.823
646.33	2.850
646.52	2.830
646.71	2.825
646.90	2.864
647.09	2.873
647.28	2.870
647.47	2.879
647.66	2.883
647.85	2.893
648.04	2.894
648.23	2.913
648.42	2.894
648.61	2.897
648.80	2.880
648.99	2.883
649.18	2.887
649.37	2.910
649.56	2.954
649.75	2.961
649.94	2.953
650.13	2.983
650.32	2.989
650.51	3.004
650.70	3.026
650.89	3.029
651.08	3.024
651.27	3.043
651.46	3.020
651.65	2.999
651.83	2.983
652.02	3.012
652.21	2.984
652.40	2.975
652.59	2.988
652.78	2.980
652.97	2.988
653.16	2.985
653.35	2.984
653.54	3.013
653.73	3.032
653.92	3.054
654.11	3.030
654.30	3.043
654.49	3.046
654.68	3.039
654.86	3.033
655.05	3.050
655.24	3.061
655.43	3.027
655.62	2.995
655.81	2.953
656.00	2.945
656.19	2.935
656.38	2.938
656.57	2.933
656.76	2.916
656.95	2.943
657.13	2.921
657.32	2.956
657.51	2.970
657.70	3.004
657.89	3.065
658.08	3.080
658.27	3.115
658.46	3.105
658.65	3.108
658.84	3.131
659.02	3.127
659.21	3.183
659.40	3.171
659.59	3.207
659.78	3.206
659.97	3.188
660.16	3.195
660.35	3.187
660.54	3.171
660.72	3.174
660.91	3.163
661.10	3.161
661.29	3.132
661.48	3.139
661.67	3.121
661.86	3.128
662.05	3.119
662.23	3.120
662.42	3.111
662.61	3.147
662.80	3.158
662.99	3.195
663.18	3.205
663.37	3.191
663.56	3.148
663.74	3.130
663.93	3.118
664.12	3.143
664.31	3.138
664.50	3.172
664.69	3.181
664.87	3.200
665.06	3.178
665.25	3.175
665.44	3.163
665.63	3.211
665.82	3.229
666.01	3.231
666.19	3.223
666.38	3.235
666.57	3.219
666.76	3.210
666.95	3.194
667.14	3.183
667.32	3.210
667.51	3.245
667.70	3.214
667.89	3.226
668.08	3.232
668.26	3.255
668.45	3.227
668.64	3.238
668.83	3.264
669.02	3.283
669.21	3.297
669.39	3.291
669.58	3.265
669.77	3.284
669.96	3.290
670.15	3.296
670.33	3.255
670.52	3.271
670.71	3.254
670.90	3.241
671.09	3.212
671.27	3.230
671.46	3.207
671.65	3.232
671.84	3.235
672.03	3.265
672.21	3.289
672.40	3.323
672.59	3.327
672.78	3.341
672.96	3.332
673.15	3.363
673.34	3.362
673.53	3.370
673.72	3.368
673.90	3.393
674.09	3.383
674.28	3.365
674.47	3.364
674.65	3.386
674.84	3.401
675.03	3.421
675.22	3.434
675.41	3.418
675.59	3.403
675.78	3.406
675.97	3.396
676.16	3.374
676.34	3.366
676.53	3.372
676.72	3.354
676.91	3.366
677.09	3.369
677.28	3.361
677.47	3.374
677.66	3.399
677.84	3.400
678.03	3.406
678.22	3.439
678.41	3.451
678.59	3.453
678.78	3.488
678.97	3.491
679.15	3.500
679.34	3.507
679.53	3.514
679.72	3.519
679.90	3.521
680.09	3.532
680.28	3.526
680.47	3.522
680.65	3.517
680.84	3.505
681.03	3.509
681.21	3.503
681.40	3.494
681.59	3.495
681.78	3.510
681.96	3.519
682.15	3.514
682.34	3.495
682.52	3.478
682.71	3.479
682.90	3.472
683.08	3.452
683.27	3.461
683.46	3.456
683.65	3.473
683.83	3.465
684.02	3.472
684.21	3.474
684.39	3.489
684.58	3.548
684.77	3.575
684.95	3.566
685.14	3.570
685.33	3.557
685.51	3.570
685.70	3.521
685.89	3.511
686.07	3.511
686.26	3.497
686.45	3.511
686.63	3.494
686.82	3.484
687.01	3.497
687.20	3.518
687.38	3.513
687.57	3.499
687.75	3.548
687.94	3.575
688.13	3.574
688.31	3.562
688.50	3.579
688.69	3.565
688.87	3.578
689.06	3.594
689.25	3.604
689.43	3.625
689.62	3.647
689.81	3.657
689.99	3.669
690.18	3.677
690.37	3.697
690.55	3.695
690.74	3.730
690.93	3.746
691.11	3.764
691.30	3.770
691.48	3.811
691.67	3.801
691.86	3.800
692.04	3.780
692.23	3.782
692.42	3.847
692.60	3.839
692.79	3.847
692.97	3.865
693.16	3.861
693.35	3.863
693.53	3.827
693.72	3.841
693.90	3.866
694.09	3.887
694.28	3.919
694.46	3.866
694.65	3.858
694.83	3.867
695.02	3.848
695.21	3.874
695.39	3.876
695.58	3.884
695.76	3.885
695.95	3.860
696.14	3.854
696.32	3.832
696.51	3.833
696.69	3.874
696.88	3.886
697.07	3.891
697.25	3.875
697.44	3.897
697.62	3.913
697.81	3.911
697.99	3.917
698.18	3.914
698.37	3.919
698.55	3.954
698.74	3.936
698.92	3.936
699.11	3.936
699.29	3.949
699.48	3.926
699.67	3.920
699.85	3.932
700.04	3.924
700.22	3.942
700.41	3.954
700.59	3.950
700.78	3.938
700.96	3.914
701.15	3.913
701.34	3.901
701.52	3.930
701.71	3.952
701.89	3.972
702.08	4.001
702.26	4.001
702.45	4.000
702.63	3.968
702.82	4.013
703.00	4.044
703.19	4.065
703.38	4.066
703.56	4.041
703.75	4.046
703.93	4.073
704.12	4.086
704.30	4.095
704.49	4.122
704.67	4.166
704.86	4.179
705.04	4.210
705.23	4.226
705.41	4.259
705.60	4.276
705.78	4.280
705.97	4.277
706.15	4.278
706.34	4.290
706.52	4.308
706.71	4.343
706.89	4.311
707.08	4.238
707.26	4.225
707.45	4.221
707.63	4.197
707.82	4.205
708.00	4.169
708.19	4.183
708.37	4.182
708.56	4.168
708.74	4.141
708.93	4.207
709.11	4.233
709.30	4.243
709.48	4.244
709.67	4.294
709.85	4.290
710.04	4.358
710.22	4.360
710.41	4.362
710.59	4.360
710.77	4.375
710.96	4.345
711.14	4.358
711.33	4.343
711.51	4.320
711.70	4.278
711.88	4.287
712.07	4.257
712.25	4.232
712.44	4.229
712.62	4.229
712.80	4.227
712.99	4.238
713.17	4.228
713.36	4.241
713.54	4.314
713.73	4.341
713.91	4.313
714.10	4.285
714.28	4.306
714.46	4.351
714.65	4.343
714.83	4.355
715.02	4.340
715.20	4.357
715.39	4.332
715.57	4.283
715.75	4.313
715.94	4.341
716.12	4.393
716.31	4.395
716.49	4.356
716.68	4.378
716.86	4.389
717.04	4.392
717.23	4.435
717.41	4.537
717.60	4.564
717.78	4.596
717.96	4.596
718.15	4.571
718.33	4.563
718.52	4.578
718.70	4.611
718.88	4.586
719.07	4.603
719.25	4.586
719.44	4.513
719.62	4.536
719.80	4.514
719.99	4.510
720.17	4.515
720.36	4.518
720.54	4.520
720.72	4.560
720.91	4.573
721.09	4.600
721.27	4.587
721.46	4.604
721.64	4.553
721.83	4.558
722.01	4.582
722.19	4.572
722.38	4.590
722.56	4.618
722.74	4.579
722.93	4.590
723.11	4.543
723.30	4.589
723.48	4.622
723.66	4.649
723.85	4.676
724.03	4.711
724.21	4.778
724.40	4.788
724.58	4.787
724.76	4.747
724.95	4.722
725.13	4.789
725.31	4.743
725.50	4.773
725.68	4.768
725.86	4.732
726.05	4.704
726.23	4.708
726.41	4.720
726.60	4.692
726.78	4.695
726.96	4.727
727.15	4.686
727.33	4.743
727.51	4.708
727.70	4.700
727.88	4.723
728.06	4.748
728.25	4.701
728.43	4.692
728.61	4.721
728.80	4.748
728.98	4.783
729.16	4.801
729.34	4.742
729.53	4.753
729.71	4.799
729.89	4.804
730.08	4.767
730.26	4.754
730.44	4.759
730.63	4.768
730.81	4.773
730.99	4.757
731.17	4.813
731.36	4.871
731.54	4.838
731.72	4.844
731.91	4.872
732.09	4.931
732.27	4.971
732.45	5.014
732.64	5.036
732.82	5.049
733.00	5.033
733.19	4.978
733.37	4.989
733.55	5.025
733.73	4.998
733.92	4.987
734.10	4.988
734.28	4.995
734.46	4.980
734.65	4.944
734.83	4.988
735.01	5.027
735.19	5.033
735.38	4.997
735.56	5.033
735.74	5.106
735.92	5.117
736.11	5.122
736.29	5.148
736.47	5.138
736.65	5.146
736.84	5.096
737.02	5.115
737.20	5.168
737.38	5.232
737.57	5.189
737.75	5.141
737.93	5.109
738.11	5.059
738.30	5.053
738.48	5.113
738.66	5.154
738.84	5.210
739.02	5.157
739.21	5.150
739.39	5.154
739.57	5.203
739.75	5.196
739.93	5.217
740.12	5.252
740.30	5.279
740.48	5.218
740.66	5.200
740.85	5.212
741.03	5.254
741.21	5.278
741.39	5.268
741.57	5.221
741.76	5.241
741.94	5.245
742.12	5.302
742.30	5.347
742.48	5.375
742.66	5.391
742.85	5.363
743.03	5.366
743.21	5.369
743.39	5.370
743.57	5.381
743.76	5.378
743.94	5.400
744.12	5.282
744.30	5.241
744.48	5.245
744.66	5.248
744.85	5.262
745.03	5.272
745.21	5.290
745.39	5.285
745.57	5.389
745.75	5.395
745.94	5.407
746.12	5.511
746.30	5.515
746.48	5.527
746.66	5.579
746.84	5.549
747.02	5.592
747.21	5.559
747.39	5.567
747.57	5.564
747.75	5.607
747.93	5.575
748.11	5.569
748.29	5.571
748.48	5.528
748.66	5.524
748.84	5.535
749.02	5.531
749.20	5.556
749.38	5.516
749.56	5.481
749.75	5.482
749.93	5.501
750.11	5.529
750.29	5.460
750.47	5.551
750.65	5.520
750.83	5.480
751.01	5.434
751.19	5.428
751.38	5.474
751.56	5.429
751.74	5.410
751.92	5.440
752.10	5.444
752.28	5.532
752.46	5.499
752.64	5.488
752.82	5.602
753.00	5.657
753.19	5.704
753.37	5.668
753.55	5.723
753.73	5.757
753.91	5.768
754.09	5.700
754.27	5.643
754.45	5.685
754.63	5.736
754.81	5.684
754.99	5.632
755.17	5.662
755.36	5.721
755.54	5.761
755.72	5.773
755.90	5.808
756.08	5.898
756.26	5.963
756.44	5.983
756.62	6.000
756.80	6.066
756.98	6.115
757.16	6.045
757.34	6.098
757.52	6.105
757.70	6.070
757.88	6.027
758.06	5.995
758.24	5.952
758.42	5.899
758.61	5.935
758.79	5.884
758.97	5.874
759.15	5.830
759.33	5.800
759.51	5.782
759.69	5.839
759.87	5.842
760.05	5.837
760.23	5.856
760.41	5.866
760.59	5.801
760.77	5.841
760.95	5.841
761.13	5.938
761.31	5.985
761.49	5.999
761.67	6.001
761.85	6.060
762.03	6.115
762.21	6.153
762.39	6.149
762.57	6.185
762.75	6.141
762.93	6.154
763.11	6.142
763.29	6.081
763.47	6.051
763.65	6.028
763.83	6.016
764.01	6.011
764.19	6.018
764.37	6.057
764.55	6.046
764.73	6.100
764.91	6.104
765.09	6.108
765.27	6.123
765.45	6.158
765.63	6.185
765.81	6.205
765.99	6.197
766.17	6.193
766.35	6.192
766.53	6.227
766.71	6.213
766.89	6.271
767.07	6.296
767.25	6.329
767.43	6.288
767.61	6.336
767.78	6.291
767.96	6.314
768.14	6.284
768.32	6.296
768.50	6.303
768.68	6.283
768.86	6.284
769.04	6.319
769.22	6.332
769.40	6.388
769.58	6.383
769.76	6.494
769.94	6.533
770.12	6.618
770.30	6.617
770.48	6.557
770.66	6.604
770.84	6.514
771.01	6.432
771.19	6.420
771.37	6.470
771.55	6.468
771.73	6.376
771.91	6.419
772.09	6.410
772.27	6.456
772.45	6.554
772.63	6.559
772.81	6.618
772.99	6.659
773.16	6.642
773.34	6.649
773.52	6.639
773.70	6.658
773.88	6.612
774.06	6.605
774.24	6.620
774.42	6.654
774.60	6.671
774.78	6.608
774.95	6.601
775.13	6.623
775.31	6.586
775.49	6.628
775.67	6.688
775.85	6.641
776.03	6.676
776.21	6.614
776.38	6.547
776.56	6.609
776.74	6.677
776.92	6.703
777.10	6.677
777.28	6.691
777.46	6.692
777.64	6.724
777.81	6.780
777.99	6.772
778.17	6.727
778.35	6.834
778.53	6.772
778.71	6.884
778.89	6.936
779.06	7.033
779.24	6.961
779.42	6.947
779.60	6.866
779.78	6.938
779.96	6.957
780.13	7.054
780.31	7.020
780.49	7.057
780.67	6.993
780.85	7.000
781.03	6.988
781.20	7.015
781.38	7.086
781.56	7.145
781.74	7.090
781.92	7.019
782.10	7.012
782.27	6.983
782.45	6.899
782.63	6.795
782.81	6.850
782.99	6.893
783.17	6.972
783.34	6.929
783.52	6.970
783.70	6.985
783.88	7.063
784.06	7.098
784.23	7.015
784.41	7.073
784.59	7.148
784.77	7.058
784.95	7.104
785.12	7.137
785.30	7.191
785.48	7.211
785.66	7.237
785.83	7.268
786.01	7.263
786.19	7.335
786.37	7.202
786.55	7.246
786.72	7.186
786.90	7.202
787.08	7.244
787.26	7.200
787.43	7.098
787.61	7.063
787.79	7.055
787.97	7.039
788.15	7.107
788.32	7.240
788.50	7.244
788.68	7.303
788.86	7.227
789.03	7.195
789.21	7.220
789.39	7.285
789.57	7.377
789.74	7.471
789.92	7.468
790.10	7.492
790.28	7.543
790.45	7.583
790.63	7.707
790.81	7.737
790.99	7.717
791.16	7.685
791.34	7.651
791.52	7.519
791.69	7.493
791.87	7.497
792.05	7.487
792.23	7.507
792.40	7.399
792.58	7.291
792.76	7.323
792.94	7.361
793.11	7.432
793.29	7.499
793.47	7.634
793.64	7.654
793.82	7.712
794.00	7.720
794.18	7.514
794.35	7.611
794.53	7.635
794.71	7.565
794.88	7.580
795.06	7.631
795.24	7.573
795.41	7.534
795.59	7.458
795.77	7.470
795.94	7.450
796.12	7.581
796.30	7.600
796.48	7.600
796.65	7.635
796.83	7.602
797.01	7.558
797.18	7.630
797.36	7.608
797.54	7.617
797.71	7.678
797.89	7.698
798.07	7.677
798.24	7.694
798.42	7.660
798.60	7.692
798.77	7.780
798.95	7.751
799.13	7.679
799.30	7.745
799.48	7.801
799.66	7.751
799.83	7.768
800.01	7.861
800.18	7.888
800.36	7.963
800.54	7.970
800.71	7.939
800.89	7.928
801.07	7.979
801.24	8.019
801.42	8.131
801.60	8.194
801.77	8.093
801.95	8.026
802.12	7.965
802.30	7.926
802.48	7.940
802.65	8.003
802.83	8.138
803.01	8.149
803.18	8.226
803.36	8.140
803.53	8.155
803.71	8.179
803.89	8.187
804.06	8.272
804.24	8.417
804.41	8.403
804.59	8.322
804.77	8.384
804.94	8.468
805.12	8.312
805.29	8.293
805.47	8.231
805.65	8.427
805.82	8.447
806.00	8.486
806.17	8.354
806.35	8.386
806.53	8.453
806.70	8.421
806.88	8.424
807.05	8.490
807.23	8.480
807.40	8.554
807.58	8.524
807.76	8.649
807.93	8.572
808.11	8.669
808.28	8.757
808.46	8.780
808.63	8.762
808.81	8.731
808.99	8.819
809.16	8.789
809.34	8.732
809.51	8.729
809.69	8.704
809.86	8.740
810.04	8.709
810.21	8.557
810.39	8.637
810.57	8.582
810.74	8.583
810.92	8.507
811.09	8.479
811.27	8.423
811.44	8.418
811.62	8.430
811.79	8.448
811.97	8.436
812.14	8.468
812.32	8.404
812.49	8.360
812.67	8.391
812.84	8.411
813.02	8.527
813.19	8.505
813.37	8.434
813.55	8.398
813.72	8.442
813.90	8.376
814.07	8.437
814.25	8.452
814.42	8.558
814.60	8.480
814.77	8.523
814.95	8.521
815.12	8.656
815.30	8.637
815.47	8.577
815.65	8.637
815.82	8.826
816.00	8.906
816.17	8.881
816.35	8.841
816.52	9.103
816.69	9.105
816.87	9.156
817.04	9.131
817.22	9.210
817.39	9.256
817.57	9.211
817.74	9.227
817.92	9.333
818.09	9.297
818.27	9.408
818.44	9.212
818.62	9.018
818.79	8.980
818.97	9.005
819.14	9.107
819.32	9.047
819.49	9.087
819.66	9.106
819.84	9.009
820.01	9.093
820.19	9.046
820.36	9.023
820.54	9.123
820.71	9.175
820.89	9.229
821.06	9.200
821.23	9.270
821.41	9.235
821.58	9.173
821.76	9.082
821.93	9.024
822.11	8.948
822.28	8.931
822.45	8.884
822.63	8.862
822.80	8.842
822.98	8.835
823.15	8.817
823.33	8.819
823.50	8.822
823.67	8.857
823.85	8.884
824.02	8.935
824.20	8.971
824.37	9.075
824.54	9.138
824.72	9.215
824.89	9.272
825.07	9.347
825.24	9.379
825.41	9.437
825.59	9.467
825.76	9.504
825.94	9.601
826.11	9.661
826.28	9.632
826.46	9.667
826.63	9.642
826.80	9.625
826.98	9.571
827.15	9.593
827.33	9.555
827.50	9.527
827.67	9.544
827.85	9.500
828.02	9.512
828.19	9.539
828.37	9.511
828.54	9.549
828.72	9.592
828.89	9.631
829.06	9.647
829.24	9.708
829.41	9.807
829.58	9.817
829.76	9.910
829.93	9.947
830.10	9.960
830.28	10.057
830.45	10.074
830.62	10.039
830.80	10.077
830.97	10.044
831.14	10.069
831.32	10.103
831.49	10.124
831.66	10.069
831.84	10.080
832.01	10.000
832.18	10.042
832.36	10.095
832.53	10.149
832.70	10.262
832.88	10.351
833.05	10.329
833.22	10.297
833.40	10.313
833.57	10.263
833.74	10.183
833.91	10.193
834.09	10.130
834.26	10.068
834.43	10.087
834.61	10.062
834.78	10.004
834.95	10.020
835.13	9.983
835.30	9.927
835.47	9.955
835.64	10.011
835.82	10.052
835.99	10.147
836.16	10.272
836.34	10.351
836.51	10.411
836.68	10.467
836.85	10.417
837.03	10.611
837.20	10.725
837.37	10.687
837.54	10.702
837.72	10.730
837.89	10.619
838.06	10.580
838.24	10.392
838.41	10.446
838.58	10.480
838.75	10.456
838.93	10.401
839.10	10.422
839.27	10.580
839.44	10.581
839.62	10.650
839.79	10.700
839.96	10.606
840.13	10.673
840.31	10.544
840.48	10.580
840.65	10.781
840.82	10.706
840.99	10.749
841.17	10.598
841.34	10.719
841.51	10.643
841.68	10.644
841.86	10.690
842.03	10.751
842.20	10.818
842.37	10.868
842.55	10.732
842.72	10.572
842.89	10.401
843.06	10.536
843.23	10.159
843.41	10.201
843.58	10.213
843.75	10.279
843.92	10.288
844.09	10.227
844.27	10.136
844.44	10.263
844.61	10.431
844.78	10.502
844.95	10.383
845.13	10.588
845.30	10.564
845.47	10.558
845.64	10.550
845.81	10.266
845.98	10.314
846.16	10.061
846.33	10.021
846.50	10.100
846.67	10.235
846.84	10.444
847.02	10.616
847.19	10.635
847.36	10.447
847.53	10.104
847.70	10.006
847.87	10.247
848.04	10.564
848.22	10.685
848.39	10.631
848.56	10.537
848.73	10.442
848.90	10.439
849.07	10.758
849.25	10.908
849.42	11.242
849.59	11.684
849.76	11.559
849.93	11.811
850.10	11.618
850.27	11.522
850.45	11.711
850.62	11.917
850.79	12.009
850.96	11.564
851.13	11.573
851.30	11.277
851.47	11.169
851.64	11.116
851.82	10.784
851.99	10.612
852.16	10.752
852.33	10.244
852.50	10.360
852.67	10.291
852.84	10.561
853.01	10.426
853.18	10.686
853.35	10.654
853.53	10.401
853.70	10.856
853.87	11.181
854.04	10.979
854.21	11.578
854.38	11.024
854.55	11.049
854.72	10.505
854.89	10.348
855.06	10.652
855.23	10.632
855.41	10.842
855.58	10.738
855.75	10.669
855.92	10.965
856.09	10.685
856.26	11.099
856.43	10.871
856.60	11.402
856.77	11.496
856.94	11.038
857.11	11.018
857.28	11.025
857.45	10.753
857.62	10.881
857.80	10.517
857.97	10.237
858.14	10.196
858.31	10.266
858.48	10.225
858.65	10.468
858.82	10.656
858.99	10.562
859.16	10.509
859.33	11.021
859.50	10.881
859.67	11.848
859.84	12.258
860.01	12.339
860.18	12.292
860.35	12.138
860.52	11.903
860.69	11.754
860.86	12.227
861.03	11.684
861.20	10.919
861.37	11.164
861.54	10.674
861.71	10.364
861.88	10.514
862.05	10.531
862.22	10.567
862.39	10.870
862.56	10.769
862.73	10.954
862.90	11.581
863.07	11.676
863.24	11.097
863.41	10.780
863.58	11.003
863.75	10.919
863.92	10.832
864.09	10.975
864.26	10.771
864.43	11.078
864.60	10.630
864.77	10.781
864.94	11.260
865.11	11.958
865.28	12.308
865.45	12.323
865.62	12.049
865.79	12.504
865.96	12.433
866.13	12.794
866.30	12.742
866.47	12.845
866.64	12.499
866.81	12.304
866.98	12.269
867.15	12.032
867.32	12.033
867.49	12.285
867.66	12.133
867.82	12.303
867.99	12.334
868.16	12.638
868.33	12.521
868.50	12.820
868.67	13.107
868.84	13.143
869.01	13.492
869.18	13.557
869.35	13.622
869.52	13.996
869.69	14.042
869.86	14.228
870.03	13.990
870.19	14.087
870.36	13.940
870.53	13.491
870.70	13.169
870.87	13.066
871.04	13.083
871.21	13.175
871.38	13.016
871.55	12.620
871.72	11.967
871.89	11.962
872.05	11.870
872.22	11.521
872.39	11.496
872.56	11.622
872.73	11.471
872.90	11.613
873.07	11.339
873.24	11.206
873.41	11.485
873.57	11.720
873.74	11.789
873.91	11.987
874.08	12.306
874.25	12.548
874.42	12.684
874.59	13.090
874.76	13.061
874.92	13.477
875.09	13.605
875.26	13.829
875.43	13.870
875.60	14.127
875.77	14.020
875.94	13.979
876.11	13.969
876.27	13.702
876.44	13.677
876.61	13.689
876.78	13.507
876.95	13.258
877.12	13.022
877.28	13.092
877.45	12.871
877.62	13.089
877.79	13.153
877.96	13.411
878.13	13.494
878.29	13.535
878.46	13.408
878.63	13.545
878.80	13.797
878.97	13.988
879.14	14.002
879.30	14.163
879.47	14.048
879.64	14.352
879.81	14.057
879.98	14.115
880.14	13.930
880.31	13.993
880.48	13.959
880.65	13.973
880.82	13.870
880.98	13.848
881.15	13.765
881.32	13.609
881.49	13.462
881.66	13.411
881.82	13.354
881.99	13.342
882.16	13.292
882.33	13.283
882.50	13.257
882.66	13.243
882.83	13.214
883.00	13.219
883.17	13.273
883.33	13.332
883.50	13.416
883.67	13.468
883.84	13.495
884.01	13.588
884.17	13.613
884.34	13.659
884.51	13.721
884.68	13.808
884.84	13.821
885.01	13.848
885.18	13.821
885.35	13.832
885.51	13.869
885.68	13.998
885.85	14.039
886.02	14.076
886.18	14.081
886.35	14.084
886.52	14.109
886.69	14.151
886.85	14.300
887.02	14.355
887.19	14.290
887.35	14.277
887.52	14.212
887.69	14.197
887.86	14.129
888.02	13.990
888.19	14.189
888.36	14.947
888.53	15.613
888.69	13.239
888.86	12.412
889.03	16.048
>>>>>End Spectral Data<<<<<
