OOIBase32 Version 2.0.6.5 Data File
++++++++++++++++++++++++++++++++++++
Date: 11-17-2016, 11:08:24
User: Valued Ocean Optics Customer
Spectrometer Serial Number: USB4C01507
Spectrometer Channel: Master
Integration Time (msec): 49
Spectra Averaged: 25
Boxcar Smoothing: 5
Correct for Electrical Dark: Enabled
Time Normalized: Disabled
Dual-beam Reference: Disabled
Reference Channel: Master
Temperature: Not acquired
Spectrometer Type: S4000
ADC Type: USB4000
Number of Pixels in File: 3648
Graph Title: 
>>>>>Begin Spectral Data<<<<<
178.53	1534.690
178.74	2243.739
178.96	81.337
179.18	0.871
179.39	425.977
179.61	-71.925
179.82	-22.689
180.04	75.195
180.25	132.844
180.47	-201.449
180.69	21.018
180.90	1310.611
181.12	-155.867
181.33	-31.281
181.55	1.560
181.76	-8460.592
181.98	86.610
182.20	284.669
182.41	31.954
182.63	55.957
182.84	19.406
183.06	6.056
183.27	7.517
183.49	2.514
183.71	-5.621
183.92	-8.350
184.14	-12.343
184.35	-4.857
184.57	-23.714
184.78	-9.234
185.00	8.103
185.21	4.709
185.43	22.608
185.65	23.257
185.86	10.777
186.08	14.382
186.29	17.211
186.51	19.170
186.72	8.838
186.94	7.545
187.15	-0.677
187.37	-9.017
187.58	-6.924
187.80	-9.155
188.02	-5.299
188.23	8.628
188.45	7.034
188.66	9.115
188.88	9.571
189.09	10.379
189.31	20.063
189.52	23.285
189.74	24.529
189.95	30.134
190.17	23.347
190.38	22.139
190.60	22.335
190.82	29.739
191.03	27.053
191.25	28.236
191.46	37.205
191.68	25.697
191.89	14.660
192.11	16.408
192.32	7.689
192.54	10.810
192.75	16.559
192.97	14.681
193.18	11.910
193.40	8.117
193.61	6.950
193.83	6.480
194.04	5.281
194.26	16.460
194.48	12.901
194.69	18.723
194.91	11.686
195.12	10.266
195.34	14.967
195.55	18.044
195.77	17.510
195.98	14.202
196.20	16.107
196.41	9.808
196.63	8.578
196.84	11.129
197.06	9.376
197.27	17.850
197.49	13.408
197.70	11.174
197.92	-0.584
198.13	1.858
198.35	2.775
198.56	0.021
198.78	8.545
198.99	10.098
199.21	2.848
199.42	0.736
199.64	1.204
199.85	3.865
200.07	5.640
200.28	12.242
200.50	5.494
200.71	9.625
200.93	10.616
201.14	14.185
201.36	13.014
201.57	17.755
201.79	16.808
202.00	14.987
202.22	14.139
202.43	14.501
202.65	10.705
202.86	16.419
203.08	12.543
203.29	11.383
203.51	6.750
203.72	7.348
203.94	8.729
204.15	9.186
204.37	8.491
204.58	9.768
204.80	11.471
205.01	10.272
205.22	9.909
205.44	11.526
205.65	7.971
205.87	10.328
206.08	9.848
206.30	9.373
206.51	7.659
206.73	9.194
206.94	4.985
207.16	3.162
207.37	6.622
207.59	4.030
207.80	1.897
208.02	6.784
208.23	8.635
208.45	8.761
208.66	4.820
208.88	8.662
209.09	7.221
209.30	9.701
209.52	9.162
209.73	9.991
209.95	14.203
210.16	11.686
210.38	12.397
210.59	11.320
210.81	9.298
211.02	13.342
211.24	10.528
211.45	7.330
211.66	10.462
211.88	9.849
212.09	9.276
212.31	10.133
212.52	11.515
212.74	7.481
212.95	4.007
213.17	4.270
213.38	4.918
213.60	8.050
213.81	11.643
214.02	10.754
214.24	10.467
214.45	5.531
214.67	4.443
214.88	4.417
215.10	6.565
215.31	10.061
215.53	10.376
215.74	7.514
215.95	7.404
216.17	7.391
216.38	4.514
216.60	3.824
216.81	9.880
217.03	8.780
217.24	9.553
217.45	10.018
217.67	9.122
217.88	8.529
218.10	8.904
218.31	7.555
218.53	6.597
218.74	6.930
218.95	4.245
219.17	-0.327
219.38	0.818
219.60	2.689
219.81	1.772
220.03	2.590
220.24	3.065
220.45	3.351
220.67	4.230
220.88	4.573
221.10	3.819
221.31	5.112
221.53	4.977
221.74	3.272
221.95	1.672
222.17	1.184
222.38	-0.570
222.60	-0.641
222.81	-1.561
223.02	-1.605
223.24	-1.939
223.45	0.052
223.67	-0.615
223.88	0.099
224.09	0.965
224.31	1.941
224.52	2.819
224.74	3.427
224.95	3.863
225.16	4.688
225.38	3.911
225.59	4.011
225.81	3.127
226.02	3.693
226.23	3.532
226.45	3.566
226.66	3.590
226.88	3.896
227.09	4.448
227.30	4.475
227.52	4.494
227.73	4.343
227.95	4.270
228.16	4.312
228.37	4.233
228.59	4.410
228.80	4.345
229.02	4.317
229.23	4.282
229.44	4.192
229.66	4.104
229.87	4.112
230.08	4.187
230.30	4.262
230.51	4.370
230.73	4.509
230.94	4.338
231.15	4.418
231.37	4.349
231.58	4.311
231.80	4.349
232.01	4.402
232.22	4.243
232.44	4.393
232.65	4.383
232.86	3.950
233.08	3.657
233.29	3.767
233.51	3.929
233.72	4.102
233.93	3.900
234.15	3.801
234.36	3.720
234.57	3.672
234.79	3.519
235.00	3.475
235.21	3.974
235.43	4.189
235.64	3.922
235.86	3.912
236.07	3.620
236.28	3.700
236.50	3.568
236.71	3.923
236.92	4.102
237.14	4.473
237.35	4.550
237.56	4.240
237.78	4.152
237.99	4.327
238.20	4.041
238.42	4.519
238.63	4.264
238.84	4.774
239.06	4.579
239.27	4.319
239.48	4.042
239.70	4.016
239.91	3.950
240.13	3.888
240.34	3.748
240.55	3.811
240.77	3.616
240.98	3.733
241.19	3.661
241.41	3.465
241.62	3.464
241.83	3.412
242.05	3.410
242.26	3.360
242.47	3.311
242.69	3.402
242.90	3.379
243.11	3.404
243.33	3.353
243.54	3.140
243.75	3.246
243.97	3.288
244.18	3.388
244.39	3.390
244.61	3.340
244.82	3.352
245.03	3.374
245.24	3.367
245.46	3.342
245.67	3.469
245.88	3.499
246.10	3.447
246.31	3.399
246.52	3.295
246.74	3.232
246.95	3.270
247.16	3.260
247.38	3.244
247.59	3.240
247.80	3.245
248.02	3.250
248.23	3.250
248.44	3.251
248.66	3.246
248.87	3.272
249.08	3.350
249.29	3.335
249.51	3.432
249.72	3.365
249.93	3.430
250.15	3.391
250.36	3.181
250.57	3.233
250.79	3.446
251.00	3.454
251.21	3.550
251.42	3.460
251.64	3.424
251.85	3.447
252.06	3.517
252.28	3.346
252.49	3.371
252.70	3.279
252.91	3.262
253.13	3.101
253.34	3.099
253.55	3.126
253.77	3.140
253.98	3.273
254.19	3.061
254.40	3.030
254.62	3.295
254.83	3.149
255.04	3.419
255.26	3.272
255.47	3.149
255.68	3.074
255.89	3.093
256.11	3.033
256.32	2.787
256.53	3.036
256.75	3.067
256.96	2.986
257.17	3.053
257.38	3.091
257.60	3.274
257.81	3.215
258.02	3.218
258.23	3.100
258.45	3.061
258.66	3.219
258.87	3.063
259.09	3.009
259.30	2.995
259.51	2.986
259.72	2.975
259.94	2.892
260.15	2.944
260.36	2.992
260.57	2.990
260.79	3.007
261.00	2.957
261.21	2.986
261.42	3.023
261.64	3.046
261.85	3.089
262.06	3.102
262.27	3.325
262.49	3.210
262.70	3.119
262.91	3.176
263.12	3.149
263.34	3.172
263.55	3.168
263.76	3.106
263.97	3.175
264.19	3.190
264.40	3.112
264.61	3.093
264.82	3.186
265.04	3.125
265.25	2.978
265.46	2.986
265.67	2.998
265.88	2.998
266.10	2.988
266.31	2.933
266.52	2.932
266.73	3.019
266.95	2.912
267.16	2.993
267.37	2.946
267.58	2.992
267.80	3.050
268.01	2.963
268.22	2.919
268.43	2.991
268.64	3.040
268.86	2.975
269.07	2.875
269.28	2.789
269.49	2.718
269.71	2.759
269.92	2.707
270.13	2.758
270.34	2.778
270.55	2.879
270.77	2.888
270.98	2.834
271.19	2.937
271.40	2.989
271.61	3.004
271.83	3.012
272.04	3.050
272.25	3.118
272.46	3.083
272.68	3.077
272.89	3.049
273.10	3.006
273.31	2.963
273.52	2.904
273.74	2.888
273.95	2.853
274.16	2.832
274.37	2.831
274.58	2.831
274.80	2.734
275.01	2.745
275.22	2.823
275.43	2.900
275.64	2.846
275.86	2.779
276.07	2.712
276.28	2.903
276.49	2.920
276.70	2.882
276.91	2.882
277.13	2.973
277.34	2.966
277.55	2.939
277.76	2.839
277.97	2.935
278.19	3.000
278.40	3.130
278.61	3.049
278.82	2.988
279.03	2.919
279.24	2.870
279.46	2.790
279.67	2.751
279.88	2.607
280.09	2.587
280.30	2.632
280.52	2.628
280.73	2.621
280.94	2.595
281.15	2.552
281.36	2.656
281.57	2.751
281.79	2.856
282.00	2.900
282.21	2.912
282.42	2.871
282.63	2.957
282.84	2.926
283.06	2.922
283.27	2.843
283.48	2.905
283.69	2.853
283.90	2.741
284.11	2.645
284.32	2.586
284.54	2.649
284.75	2.637
284.96	2.521
285.17	2.538
285.38	2.507
285.59	2.653
285.81	2.641
286.02	2.691
286.23	2.715
286.44	2.780
286.65	2.869
286.86	2.838
287.07	2.810
287.29	2.816
287.50	2.775
287.71	2.757
287.92	2.630
288.13	2.623
288.34	2.557
288.55	2.614
288.77	2.497
288.98	2.401
289.19	2.382
289.40	2.538
289.61	2.609
289.82	2.629
290.03	2.630
290.24	2.672
290.46	2.682
290.67	2.765
290.88	2.735
291.09	2.757
291.30	2.813
291.51	2.927
291.72	2.869
291.93	2.772
292.15	2.790
292.36	2.948
292.57	2.933
292.78	2.955
292.99	2.811
293.20	2.783
293.41	2.748
293.62	2.716
293.84	2.679
294.05	2.749
294.26	2.849
294.47	2.871
294.68	2.726
294.89	2.815
295.10	2.776
295.31	2.791
295.52	2.831
295.73	2.880
295.95	2.859
296.16	2.811
296.37	2.789
296.58	2.784
296.79	2.810
297.00	2.792
297.21	2.687
297.42	2.663
297.63	2.636
297.84	2.613
298.06	2.543
298.27	2.545
298.48	2.580
298.69	2.475
298.90	2.441
299.11	2.424
299.32	2.397
299.53	2.470
299.74	2.513
299.95	2.625
300.16	2.636
300.38	2.714
300.59	2.664
300.80	2.607
301.01	2.619
301.22	2.640
301.43	2.561
301.64	2.588
301.85	2.447
302.06	2.444
302.27	2.350
302.48	2.343
302.69	2.320
302.91	2.365
303.12	2.405
303.33	2.465
303.54	2.461
303.75	2.464
303.96	2.449
304.17	2.559
304.38	2.519
304.59	2.590
304.80	2.545
305.01	2.567
305.22	2.559
305.43	2.515
305.64	2.485
305.85	2.416
306.06	2.411
306.28	2.436
306.49	2.499
306.70	2.417
306.91	2.313
307.12	2.279
307.33	2.165
307.54	2.237
307.75	2.241
307.96	2.183
308.17	2.187
308.38	2.199
308.59	2.185
308.80	2.124
309.01	2.233
309.22	2.263
309.43	2.275
309.64	2.319
309.85	2.223
310.06	2.227
310.27	2.294
310.48	2.316
310.70	2.321
310.91	2.304
311.12	2.251
311.33	2.270
311.54	2.195
311.75	2.209
311.96	2.257
312.17	2.271
312.38	2.273
312.59	2.239
312.80	2.184
313.01	2.166
313.22	2.115
313.43	2.133
313.64	2.036
313.85	2.098
314.06	2.080
314.27	2.097
314.48	2.196
314.69	2.225
314.90	2.253
315.11	2.490
315.32	2.444
315.53	2.479
315.74	2.467
315.95	2.481
316.16	2.476
316.37	2.446
316.58	2.389
316.79	2.303
317.00	2.232
317.21	2.200
317.42	1.951
317.63	1.978
317.84	2.008
318.05	1.989
318.26	1.970
318.47	1.983
318.68	2.005
318.89	2.019
319.10	1.974
319.31	1.955
319.52	2.001
319.73	1.993
319.94	2.004
320.15	1.923
320.36	1.996
320.57	2.010
320.78	2.018
320.99	2.058
321.20	2.061
321.41	2.105
321.62	2.128
321.83	2.143
322.04	2.125
322.25	2.107
322.46	2.188
322.67	2.154
322.88	2.119
323.09	2.062
323.30	1.927
323.51	1.887
323.72	1.832
323.93	1.878
324.14	1.873
324.35	1.942
324.56	1.930
324.77	1.868
324.98	1.858
325.19	1.859
325.40	1.862
325.61	1.937
325.82	1.963
326.03	2.032
326.24	2.003
326.45	1.971
326.65	1.926
326.86	1.954
327.07	2.007
327.28	1.992
327.49	2.081
327.70	2.082
327.91	2.036
328.12	2.021
328.33	1.932
328.54	1.931
328.75	1.935
328.96	1.999
329.17	1.933
329.38	1.887
329.59	1.863
329.80	1.808
330.01	1.823
330.22	1.887
330.43	1.853
330.64	1.956
330.85	1.933
331.05	1.884
331.26	1.808
331.47	1.838
331.68	1.870
331.89	1.936
332.10	1.935
332.31	1.972
332.52	1.938
332.73	1.932
332.94	1.871
333.15	1.867
333.36	1.954
333.57	1.967
333.78	1.956
333.99	1.963
334.19	1.928
334.40	1.907
334.61	1.918
334.82	1.959
335.03	1.984
335.24	1.973
335.45	1.998
335.66	2.012
335.87	1.993
336.08	2.009
336.29	1.943
336.50	1.959
336.71	2.025
336.91	1.982
337.12	1.904
337.33	1.945
337.54	1.950
337.75	1.916
337.96	1.803
338.17	1.909
338.38	1.857
338.59	1.931
338.80	1.843
339.01	1.792
339.21	1.758
339.42	1.827
339.63	1.720
339.84	1.784
340.05	1.796
340.26	1.831
340.47	1.735
340.68	1.749
340.89	1.720
341.10	1.742
341.30	1.725
341.51	1.773
341.72	1.772
341.93	1.854
342.14	1.761
342.35	1.796
342.56	1.761
342.77	1.799
342.98	1.795
343.18	1.820
343.39	1.856
343.60	1.871
343.81	1.882
344.02	1.884
344.23	1.880
344.44	1.902
344.65	1.858
344.85	1.846
345.06	1.865
345.27	1.897
345.48	1.828
345.69	1.876
345.90	1.899
346.11	1.890
346.32	1.836
346.52	1.809
346.73	1.790
346.94	1.804
347.15	1.821
347.36	1.780
347.57	1.807
347.78	1.861
347.98	1.764
348.19	1.740
348.40	1.732
348.61	1.763
348.82	1.807
349.03	1.853
349.24	1.844
349.44	1.891
349.65	1.875
349.86	1.866
350.07	1.910
350.28	1.977
350.49	1.971
350.70	1.905
350.90	1.888
351.11	1.886
351.32	1.821
351.53	1.849
351.74	1.823
351.95	1.817
352.15	1.820
352.36	1.764
352.57	1.738
352.78	1.836
352.99	1.881
353.20	1.932
353.40	1.902
353.61	1.908
353.82	1.884
354.03	1.896
354.24	1.927
354.45	1.945
354.65	1.893
354.86	1.892
355.07	1.757
355.28	1.783
355.49	1.744
355.70	1.729
355.90	1.757
356.11	1.742
356.32	1.754
356.53	1.786
356.74	1.753
356.94	1.769
357.15	1.761
357.36	1.808
357.57	1.810
357.78	1.825
357.99	1.819
358.19	1.828
358.40	1.877
358.61	1.901
358.82	1.873
359.03	1.896
359.23	1.930
359.44	1.981
359.65	1.961
359.86	1.978
360.07	2.015
360.27	2.056
360.48	2.037
360.69	2.013
360.90	1.976
361.11	2.056
361.31	2.043
361.52	2.055
361.73	2.014
361.94	2.042
362.15	1.985
362.35	1.938
362.56	1.950
362.77	1.987
362.98	1.995
363.18	1.999
363.39	1.897
363.60	1.934
363.81	1.920
364.02	1.941
364.22	1.944
364.43	1.977
364.64	1.976
364.85	1.924
365.05	1.894
365.26	1.864
365.47	1.879
365.68	1.890
365.89	1.831
366.09	1.862
366.30	1.862
366.51	1.858
366.72	1.827
366.92	1.859
367.13	1.898
367.34	1.902
367.55	1.900
367.75	1.900
367.96	1.908
368.17	1.962
368.38	1.947
368.58	1.931
368.79	1.915
369.00	1.966
369.21	1.958
369.41	1.946
369.62	1.934
369.83	1.979
370.04	1.947
370.24	1.942
370.45	1.951
370.66	1.933
370.87	1.915
371.07	1.886
371.28	1.870
371.49	1.863
371.70	1.839
371.90	1.851
372.11	1.838
372.32	1.871
372.53	1.908
372.73	1.882
372.94	1.887
373.15	1.972
373.36	1.989
373.56	2.026
373.77	2.035
373.98	2.059
374.19	2.083
374.39	2.098
374.60	2.105
374.81	2.097
375.01	2.096
375.22	2.093
375.43	2.057
375.64	2.047
375.84	2.014
376.05	2.014
376.26	2.018
376.46	2.004
376.67	1.980
376.88	1.966
377.09	1.939
377.29	1.929
377.50	1.910
377.71	1.913
377.91	1.950
378.12	1.949
378.33	1.946
378.54	1.961
378.74	1.945
378.95	1.945
379.16	1.958
379.36	1.944
379.57	1.936
379.78	1.973
379.99	1.963
380.19	1.932
380.40	1.882
380.61	1.853
380.81	1.813
381.02	1.844
381.23	1.839
381.43	1.838
381.64	1.890
381.85	1.902
382.05	1.890
382.26	1.887
382.47	1.893
382.67	1.935
382.88	1.938
383.09	1.958
383.30	1.947
383.50	1.965
383.71	1.937
383.92	1.911
384.12	1.933
384.33	1.911
384.54	1.889
384.74	1.911
384.95	1.902
385.16	1.943
385.36	1.957
385.57	1.959
385.78	1.943
385.98	1.978
386.19	1.971
386.40	1.946
386.60	1.933
386.81	1.935
387.02	1.920
387.22	1.934
387.43	1.891
387.64	1.888
387.84	1.862
388.05	1.855
388.26	1.831
388.46	1.842
388.67	1.863
388.88	1.905
389.08	1.927
389.29	1.940
389.49	1.931
389.70	1.973
389.91	1.975
390.11	1.979
390.32	1.996
390.53	2.002
390.73	1.991
390.94	1.974
391.15	1.977
391.35	1.954
391.56	1.965
391.77	1.983
391.97	1.959
392.18	1.959
392.38	1.990
392.59	1.979
392.80	1.952
393.00	1.937
393.21	1.939
393.42	1.946
393.62	1.962
393.83	1.967
394.04	1.939
394.24	1.938
394.45	1.919
394.65	1.921
394.86	1.934
395.07	1.967
395.27	1.970
395.48	1.950
395.68	1.937
395.89	1.938
396.10	1.918
396.30	1.904
396.51	1.928
396.72	1.942
396.92	1.916
397.13	1.931
397.33	1.916
397.54	1.937
397.75	1.961
397.95	1.971
398.16	1.952
398.36	1.962
398.57	1.988
398.78	1.976
398.98	1.972
399.19	1.986
399.39	1.964
399.60	1.959
399.81	1.953
400.01	1.938
400.22	1.936
400.42	1.966
400.63	1.952
400.84	1.982
401.04	1.995
401.25	1.997
401.45	1.988
401.66	1.980
401.86	1.956
402.07	1.963
402.28	1.974
402.48	1.953
402.69	1.945
402.89	1.935
403.10	1.917
403.31	1.918
403.51	1.916
403.72	1.943
403.92	1.960
404.13	1.987
404.33	1.980
404.54	1.983
404.75	1.985
404.95	2.005
405.16	2.014
405.36	2.009
405.57	2.000
405.77	2.006
405.98	1.985
406.18	1.977
406.39	1.974
406.60	1.970
406.80	1.948
407.01	1.946
407.21	1.921
407.42	1.940
407.62	1.950
407.83	1.940
408.03	1.910
408.24	1.918
408.45	1.912
408.65	1.943
408.86	1.972
409.06	1.999
409.27	1.997
409.47	1.985
409.68	1.973
409.88	1.994
410.09	2.004
410.29	2.031
410.50	2.018
410.71	2.043
410.91	2.030
411.12	2.028
411.32	2.027
411.53	2.050
411.73	2.061
411.94	2.057
412.14	2.059
412.35	2.035
412.55	2.020
412.76	2.033
412.96	2.033
413.17	2.011
413.37	1.988
413.58	2.009
413.78	2.005
413.99	2.027
414.19	2.060
414.40	2.048
414.61	2.078
414.81	2.082
415.02	2.083
415.22	2.068
415.43	2.087
415.63	2.107
415.84	2.085
416.04	2.087
416.25	2.075
416.45	2.031
416.66	2.038
416.86	2.034
417.07	2.013
417.27	2.012
417.48	1.996
417.68	2.010
417.89	2.004
418.09	2.001
418.30	1.992
418.50	1.984
418.71	2.010
418.91	1.997
419.12	1.984
419.32	1.991
419.53	1.978
419.73	1.983
419.94	1.969
420.14	1.948
420.34	1.956
420.55	1.958
420.75	1.957
420.96	1.943
421.16	1.942
421.37	1.951
421.57	1.971
421.78	1.979
421.98	1.978
422.19	1.976
422.39	1.998
422.60	1.992
422.80	1.981
423.01	1.992
423.21	2.001
423.42	2.006
423.62	1.993
423.83	1.984
424.03	1.989
424.23	1.993
424.44	1.991
424.64	1.995
424.85	1.986
425.05	2.004
425.26	2.004
425.46	2.024
425.67	2.014
425.87	2.033
426.08	2.049
426.28	2.055
426.48	2.063
426.69	2.085
426.89	2.088
427.10	2.121
427.30	2.141
427.51	2.150
427.71	2.116
427.92	2.107
428.12	2.103
428.32	2.082
428.53	2.060
428.73	2.077
428.94	2.086
429.14	2.084
429.35	2.062
429.55	2.046
429.76	2.046
429.96	2.050
430.16	2.085
430.37	2.076
430.57	2.086
430.78	2.103
430.98	2.091
431.19	2.083
431.39	2.067
431.59	2.064
431.80	2.065
432.00	2.044
432.21	2.044
432.41	2.020
432.61	2.032
432.82	2.035
433.02	2.039
433.23	2.042
433.43	2.036
433.64	2.052
433.84	2.058
434.04	2.052
434.25	2.078
434.45	2.093
434.66	2.107
434.86	2.121
435.06	2.118
435.27	2.112
435.47	2.105
435.68	2.097
435.88	2.099
436.08	2.105
436.29	2.107
436.49	2.103
436.70	2.072
436.90	2.073
437.10	2.075
437.31	2.066
437.51	2.076
437.71	2.091
437.92	2.084
438.12	2.082
438.33	2.078
438.53	2.076
438.73	2.065
438.94	2.086
439.14	2.087
439.35	2.079
439.55	2.094
439.75	2.085
439.96	2.081
440.16	2.092
440.36	2.085
440.57	2.090
440.77	2.103
440.97	2.105
441.18	2.110
441.38	2.114
441.59	2.118
441.79	2.113
441.99	2.117
442.20	2.104
442.40	2.098
442.60	2.111
442.81	2.103
443.01	2.097
443.21	2.091
443.42	2.072
443.62	2.080
443.83	2.074
444.03	2.072
444.23	2.083
444.44	2.095
444.64	2.096
444.84	2.087
445.05	2.088
445.25	2.076
445.45	2.087
445.66	2.097
445.86	2.096
446.06	2.091
446.27	2.102
446.47	2.090
446.67	2.102
446.88	2.103
447.08	2.110
447.28	2.120
447.49	2.131
447.69	2.129
447.89	2.131
448.10	2.130
448.30	2.151
448.50	2.130
448.71	2.142
448.91	2.129
449.11	2.148
449.32	2.160
449.52	2.168
449.72	2.164
449.93	2.172
450.13	2.174
450.33	2.177
450.53	2.156
450.74	2.173
450.94	2.162
451.14	2.169
451.35	2.166
451.55	2.151
451.75	2.134
451.96	2.132
452.16	2.120
452.36	2.121
452.57	2.138
452.77	2.161
452.97	2.159
453.17	2.173
453.38	2.178
453.58	2.163
453.78	2.157
453.99	2.158
454.19	2.182
454.39	2.192
454.59	2.188
454.80	2.166
455.00	2.160
455.20	2.169
455.41	2.152
455.61	2.147
455.81	2.172
456.01	2.180
456.22	2.202
456.42	2.195
456.62	2.209
456.83	2.226
457.03	2.232
457.23	2.225
457.43	2.216
457.64	2.247
457.84	2.225
458.04	2.200
458.25	2.199
458.45	2.190
458.65	2.175
458.85	2.170
459.06	2.148
459.26	2.137
459.46	2.130
459.66	2.129
459.87	2.123
460.07	2.136
460.27	2.141
460.47	2.141
460.68	2.157
460.88	2.164
461.08	2.160
461.28	2.174
461.49	2.178
461.69	2.185
461.89	2.200
462.09	2.198
462.30	2.206
462.50	2.209
462.70	2.226
462.90	2.198
463.11	2.206
463.31	2.207
463.51	2.203
463.71	2.221
463.92	2.233
464.12	2.206
464.32	2.220
464.52	2.205
464.72	2.209
464.93	2.180
465.13	2.191
465.33	2.185
465.53	2.176
465.74	2.189
465.94	2.179
466.14	2.168
466.34	2.171
466.54	2.154
466.75	2.157
466.95	2.150
467.15	2.166
467.35	2.156
467.56	2.154
467.76	2.168
467.96	2.165
468.16	2.165
468.36	2.168
468.57	2.186
468.77	2.200
468.97	2.192
469.17	2.197
469.37	2.197
469.58	2.195
469.78	2.211
469.98	2.204
470.18	2.200
470.38	2.195
470.59	2.202
470.79	2.197
470.99	2.195
471.19	2.200
471.39	2.200
471.60	2.199
471.80	2.206
472.00	2.200
472.20	2.210
472.40	2.202
472.61	2.213
472.81	2.214
473.01	2.214
473.21	2.213
473.41	2.213
473.61	2.223
473.82	2.250
474.02	2.246
474.22	2.248
474.42	2.243
474.62	2.251
474.82	2.256
475.03	2.262
475.23	2.258
475.43	2.277
475.63	2.280
475.83	2.274
476.03	2.250
476.24	2.249
476.44	2.256
476.64	2.259
476.84	2.266
477.04	2.262
477.24	2.263
477.45	2.266
477.65	2.255
477.85	2.263
478.05	2.262
478.25	2.266
478.45	2.280
478.65	2.277
478.86	2.281
479.06	2.267
479.26	2.280
479.46	2.272
479.66	2.276
479.86	2.270
480.06	2.266
480.27	2.256
480.47	2.245
480.67	2.232
480.87	2.223
481.07	2.220
481.27	2.239
481.47	2.242
481.68	2.249
481.88	2.258
482.08	2.262
482.28	2.273
482.48	2.288
482.68	2.288
482.88	2.285
483.08	2.297
483.29	2.303
483.49	2.290
483.69	2.274
483.89	2.267
484.09	2.266
484.29	2.267
484.49	2.269
484.69	2.267
484.89	2.275
485.10	2.282
485.30	2.278
485.50	2.276
485.70	2.291
485.90	2.311
486.10	2.326
486.30	2.332
486.50	2.328
486.70	2.319
486.90	2.312
487.11	2.302
487.31	2.295
487.51	2.289
487.71	2.283
487.91	2.285
488.11	2.283
488.31	2.292
488.51	2.288
488.71	2.294
488.91	2.303
489.11	2.315
489.32	2.320
489.52	2.330
489.72	2.346
489.92	2.360
490.12	2.368
490.32	2.373
490.52	2.361
490.72	2.358
490.92	2.342
491.12	2.321
491.32	2.319
491.52	2.321
491.72	2.316
491.92	2.311
492.13	2.311
492.33	2.308
492.53	2.314
492.73	2.318
492.93	2.325
493.13	2.350
493.33	2.368
493.53	2.382
493.73	2.390
493.93	2.403
494.13	2.408
494.33	2.404
494.53	2.403
494.73	2.392
494.93	2.392
495.13	2.381
495.33	2.376
495.53	2.372
495.73	2.354
495.94	2.350
496.14	2.350
496.34	2.357
496.54	2.352
496.74	2.350
496.94	2.356
497.14	2.350
497.34	2.366
497.54	2.358
497.74	2.360
497.94	2.374
498.14	2.377
498.34	2.379
498.54	2.375
498.74	2.369
498.94	2.367
499.14	2.365
499.34	2.363
499.54	2.349
499.74	2.358
499.94	2.361
500.14	2.359
500.34	2.364
500.54	2.367
500.74	2.364
500.94	2.384
501.14	2.401
501.34	2.400
501.54	2.421
501.74	2.415
501.94	2.407
502.14	2.415
502.34	2.417
502.54	2.402
502.74	2.407
502.94	2.418
503.14	2.411
503.34	2.412
503.54	2.423
503.74	2.413
503.94	2.427
504.14	2.431
504.34	2.428
504.54	2.430
504.74	2.434
504.94	2.425
505.14	2.425
505.34	2.438
505.54	2.435
505.74	2.444
505.94	2.450
506.14	2.471
506.34	2.483
506.54	2.486
506.74	2.488
506.94	2.490
507.14	2.477
507.34	2.457
507.54	2.444
507.74	2.436
507.94	2.418
508.14	2.412
508.34	2.388
508.54	2.383
508.74	2.390
508.94	2.389
509.13	2.389
509.33	2.405
509.53	2.425
509.73	2.441
509.93	2.441
510.13	2.447
510.33	2.454
510.53	2.459
510.73	2.463
510.93	2.455
511.13	2.453
511.33	2.459
511.53	2.466
511.73	2.461
511.93	2.455
512.13	2.463
512.33	2.474
512.53	2.476
512.73	2.480
512.92	2.487
513.12	2.495
513.32	2.500
513.52	2.512
513.72	2.503
513.92	2.517
514.12	2.514
514.32	2.516
514.52	2.501
514.72	2.491
514.92	2.484
515.12	2.485
515.32	2.469
515.52	2.485
515.71	2.479
515.91	2.481
516.11	2.485
516.31	2.494
516.51	2.482
516.71	2.490
516.91	2.505
517.11	2.513
517.31	2.503
517.51	2.521
517.71	2.509
517.90	2.513
518.10	2.511
518.30	2.504
518.50	2.494
518.70	2.497
518.90	2.500
519.10	2.503
519.30	2.506
519.50	2.513
519.69	2.507
519.89	2.514
520.09	2.501
520.29	2.517
520.49	2.517
520.69	2.535
520.89	2.552
521.09	2.557
521.29	2.550
521.48	2.551
521.68	2.550
521.88	2.555
522.08	2.552
522.28	2.578
522.48	2.568
522.68	2.575
522.88	2.563
523.07	2.563
523.27	2.556
523.47	2.575
523.67	2.578
523.87	2.580
524.07	2.568
524.27	2.571
524.47	2.556
524.66	2.560
524.86	2.560
525.06	2.552
525.26	2.551
525.46	2.557
525.66	2.552
525.85	2.547
526.05	2.545
526.25	2.555
526.45	2.556
526.65	2.570
526.85	2.571
527.05	2.582
527.24	2.596
527.44	2.587
527.64	2.578
527.84	2.565
528.04	2.561
528.24	2.549
528.43	2.551
528.63	2.549
528.83	2.547
529.03	2.543
529.23	2.542
529.43	2.542
529.62	2.546
529.82	2.551
530.02	2.559
530.22	2.574
530.42	2.593
530.62	2.596
530.81	2.609
531.01	2.611
531.21	2.625
531.41	2.632
531.61	2.639
531.80	2.646
532.00	2.639
532.20	2.641
532.40	2.633
532.60	2.635
532.79	2.632
532.99	2.621
533.19	2.627
533.39	2.629
533.59	2.631
533.78	2.621
533.98	2.625
534.18	2.640
534.38	2.641
534.58	2.657
534.77	2.653
534.97	2.665
535.17	2.682
535.37	2.677
535.57	2.678
535.76	2.671
535.96	2.677
536.16	2.673
536.36	2.664
536.56	2.660
536.75	2.651
536.95	2.661
537.15	2.665
537.35	2.674
537.54	2.683
537.74	2.683
537.94	2.692
538.14	2.709
538.34	2.711
538.53	2.733
538.73	2.751
538.93	2.752
539.13	2.756
539.32	2.757
539.52	2.743
539.72	2.736
539.92	2.738
540.11	2.730
540.31	2.700
540.51	2.690
540.71	2.665
540.90	2.651
541.10	2.650
541.30	2.643
541.50	2.641
541.69	2.642
541.89	2.643
542.09	2.644
542.29	2.648
542.48	2.657
542.68	2.668
542.88	2.684
543.08	2.699
543.27	2.714
543.47	2.733
543.67	2.741
543.87	2.749
544.06	2.748
544.26	2.758
544.46	2.756
544.65	2.759
544.85	2.764
545.05	2.771
545.25	2.778
545.44	2.757
545.64	2.757
545.84	2.750
546.04	2.749
546.23	2.743
546.43	2.729
546.63	2.731
546.82	2.731
547.02	2.724
547.22	2.733
547.42	2.731
547.61	2.752
547.81	2.753
548.01	2.763
548.20	2.765
548.40	2.791
548.60	2.801
548.79	2.797
548.99	2.809
549.19	2.816
549.39	2.789
549.58	2.792
549.78	2.769
549.98	2.761
550.17	2.755
550.37	2.754
550.57	2.740
550.76	2.737
550.96	2.740
551.16	2.733
551.35	2.721
551.55	2.732
551.75	2.731
551.94	2.744
552.14	2.746
552.34	2.742
552.53	2.743
552.73	2.747
552.93	2.749
553.13	2.762
553.32	2.764
553.52	2.786
553.72	2.783
553.91	2.781
554.11	2.785
554.31	2.793
554.50	2.796
554.70	2.802
554.89	2.819
555.09	2.824
555.29	2.821
555.48	2.823
555.68	2.830
555.88	2.842
556.07	2.842
556.27	2.841
556.47	2.834
556.66	2.838
556.86	2.848
557.06	2.842
557.25	2.827
557.45	2.823
557.65	2.833
557.84	2.823
558.04	2.818
558.23	2.825
558.43	2.833
558.63	2.835
558.82	2.835
559.02	2.817
559.22	2.813
559.41	2.847
559.61	2.859
559.81	2.861
560.00	2.866
560.20	2.876
560.39	2.871
560.59	2.869
560.79	2.875
560.98	2.889
561.18	2.898
561.37	2.899
561.57	2.896
561.77	2.889
561.96	2.888
562.16	2.890
562.36	2.893
562.55	2.904
562.75	2.916
562.94	2.918
563.14	2.904
563.34	2.911
563.53	2.915
563.73	2.913
563.92	2.940
564.12	2.935
564.32	2.930
564.51	2.937
564.71	2.929
564.90	2.924
565.10	2.920
565.29	2.935
565.49	2.933
565.69	2.937
565.88	2.913
566.08	2.904
566.27	2.913
566.47	2.915
566.67	2.918
566.86	2.929
567.06	2.941
567.25	2.963
567.45	2.961
567.64	2.968
567.84	2.977
568.04	3.002
568.23	3.007
568.43	3.012
568.62	3.016
568.82	3.016
569.01	3.011
569.21	2.997
569.41	2.997
569.60	2.989
569.80	2.990
569.99	2.979
570.19	2.980
570.38	2.962
570.58	2.970
570.77	2.973
570.97	2.962
571.17	2.969
571.36	2.982
571.56	2.968
571.75	2.964
571.95	2.954
572.14	2.967
572.34	2.972
572.53	2.992
572.73	2.983
572.92	2.984
573.12	2.998
573.31	2.993
573.51	2.996
573.70	2.995
573.90	3.004
574.10	3.010
574.29	3.022
574.49	3.021
574.68	3.012
574.88	3.015
575.07	3.020
575.27	3.013
575.46	3.026
575.66	3.027
575.85	3.040
576.05	3.044
576.24	3.054
576.44	3.039
576.63	3.042
576.83	3.049
577.02	3.055
577.22	3.048
577.41	3.068
577.61	3.056
577.80	3.051
578.00	3.049
578.19	3.067
578.39	3.063
578.58	3.069
578.78	3.078
578.97	3.092
579.17	3.090
579.36	3.093
579.56	3.099
579.75	3.111
579.95	3.104
580.14	3.104
580.34	3.094
580.53	3.104
580.73	3.097
580.92	3.089
581.12	3.084
581.31	3.085
581.51	3.084
581.70	3.088
581.89	3.083
582.09	3.105
582.28	3.098
582.48	3.106
582.67	3.113
582.87	3.130
583.06	3.130
583.26	3.121
583.45	3.138
583.65	3.146
583.84	3.137
584.04	3.141
584.23	3.146
584.43	3.162
584.62	3.170
584.81	3.169
585.01	3.166
585.20	3.171
585.40	3.189
585.59	3.188
585.79	3.196
585.98	3.196
586.18	3.206
586.37	3.211
586.56	3.204
586.76	3.199
586.95	3.198
587.15	3.200
587.34	3.202
587.54	3.187
587.73	3.182
587.92	3.184
588.12	3.188
588.31	3.174
588.51	3.157
588.70	3.166
588.90	3.154
589.09	3.167
589.28	3.152
589.48	3.152
589.67	3.155
589.87	3.161
590.06	3.142
590.25	3.140
590.45	3.155
590.64	3.180
590.84	3.189
591.03	3.205
591.23	3.192
591.42	3.206
591.61	3.200
591.81	3.205
592.00	3.200
592.20	3.230
592.39	3.225
592.58	3.227
592.78	3.212
592.97	3.194
593.17	3.197
593.36	3.209
593.55	3.223
593.75	3.251
593.94	3.251
594.13	3.255
594.33	3.243
594.52	3.251
594.72	3.255
594.91	3.269
595.10	3.291
595.30	3.264
595.49	3.265
595.68	3.262
595.88	3.246
596.07	3.234
596.27	3.229
596.46	3.215
596.65	3.226
596.85	3.213
597.04	3.212
597.23	3.207
597.43	3.237
597.62	3.244
597.81	3.241
598.01	3.255
598.20	3.285
598.40	3.301
598.59	3.320
598.78	3.331
598.98	3.356
599.17	3.356
599.36	3.358
599.56	3.366
599.75	3.345
599.94	3.360
600.14	3.351
600.33	3.360
600.52	3.362
600.72	3.408
600.91	3.383
601.10	3.378
601.30	3.375
601.49	3.376
601.68	3.380
601.88	3.393
602.07	3.381
602.26	3.393
602.46	3.368
602.65	3.378
602.84	3.358
603.04	3.381
603.23	3.390
603.42	3.403
603.62	3.420
603.81	3.419
604.00	3.423
604.20	3.414
604.39	3.408
604.58	3.425
604.77	3.415
604.97	3.421
605.16	3.415
605.35	3.421
605.55	3.430
605.74	3.424
605.93	3.430
606.13	3.452
606.32	3.460
606.51	3.481
606.70	3.486
606.90	3.507
607.09	3.510
607.28	3.526
607.48	3.519
607.67	3.511
607.86	3.520
608.05	3.515
608.25	3.493
608.44	3.510
608.63	3.506
608.83	3.500
609.02	3.487
609.21	3.485
609.40	3.480
609.60	3.473
609.79	3.464
609.98	3.463
610.17	3.465
610.37	3.467
610.56	3.468
610.75	3.469
610.95	3.465
611.14	3.471
611.33	3.459
611.52	3.447
611.72	3.443
611.91	3.467
612.10	3.466
612.29	3.475
612.49	3.489
612.68	3.496
612.87	3.497
613.06	3.501
613.26	3.512
613.45	3.541
613.64	3.564
613.83	3.568
614.03	3.570
614.22	3.575
614.41	3.574
614.60	3.579
614.79	3.575
614.99	3.581
615.18	3.578
615.37	3.581
615.56	3.562
615.76	3.583
615.95	3.601
616.14	3.575
616.33	3.578
616.53	3.577
616.72	3.572
616.91	3.585
617.10	3.576
617.29	3.568
617.49	3.562
617.68	3.572
617.87	3.552
618.06	3.560
618.25	3.583
618.45	3.594
618.64	3.597
618.83	3.596
619.02	3.596
619.21	3.608
619.41	3.648
619.60	3.659
619.79	3.661
619.98	3.672
620.17	3.676
620.37	3.677
620.56	3.684
620.75	3.690
620.94	3.695
621.13	3.694
621.33	3.695
621.52	3.701
621.71	3.710
621.90	3.727
622.09	3.695
622.28	3.701
622.48	3.691
622.67	3.673
622.86	3.661
623.05	3.675
623.24	3.668
623.44	3.676
623.63	3.668
623.82	3.691
624.01	3.661
624.20	3.670
624.39	3.676
624.59	3.692
624.78	3.700
624.97	3.728
625.16	3.703
625.35	3.720
625.54	3.714
625.73	3.710
625.93	3.688
626.12	3.732
626.31	3.749
626.50	3.746
626.69	3.737
626.88	3.750
627.07	3.751
627.27	3.783
627.46	3.797
627.65	3.808
627.84	3.799
628.03	3.800
628.22	3.782
628.41	3.793
628.61	3.807
628.80	3.831
628.99	3.832
629.18	3.824
629.37	3.824
629.56	3.818
629.75	3.803
629.94	3.845
630.14	3.850
630.33	3.859
630.52	3.856
630.71	3.848
630.90	3.855
631.09	3.856
631.28	3.864
631.47	3.859
631.66	3.871
631.86	3.881
632.05	3.853
632.24	3.859
632.43	3.864
632.62	3.853
632.81	3.836
633.00	3.847
633.19	3.844
633.38	3.845
633.57	3.842
633.77	3.832
633.96	3.849
634.15	3.864
634.34	3.872
634.53	3.878
634.72	3.875
634.91	3.894
635.10	3.889
635.29	3.916
635.48	3.937
635.67	3.963
635.86	3.973
636.05	3.983
636.25	3.983
636.44	3.996
636.63	4.000
636.82	4.044
637.01	4.073
637.20	4.076
637.39	4.070
637.58	4.047
637.77	4.031
637.96	4.051
638.15	4.049
638.34	4.057
638.53	4.052
638.72	4.030
638.91	4.039
639.10	4.048
639.30	4.044
639.49	4.055
639.68	4.078
639.87	4.096
640.06	4.064
640.25	4.082
640.44	4.072
640.63	4.078
640.82	4.086
641.01	4.101
641.20	4.066
641.39	4.072
641.58	4.069
641.77	4.077
641.96	4.079
642.15	4.111
642.34	4.114
642.53	4.116
642.72	4.122
642.91	4.121
643.10	4.077
643.29	4.106
643.48	4.096
643.67	4.087
643.86	4.099
644.05	4.102
644.24	4.098
644.43	4.093
644.62	4.128
644.81	4.113
645.00	4.131
645.19	4.160
645.38	4.144
645.57	4.169
645.76	4.192
645.95	4.173
646.14	4.178
646.33	4.179
646.52	4.175
646.71	4.173
646.90	4.193
647.09	4.217
647.28	4.199
647.47	4.206
647.66	4.213
647.85	4.221
648.04	4.224
648.23	4.236
648.42	4.252
648.61	4.239
648.80	4.221
648.99	4.208
649.18	4.182
649.37	4.196
649.56	4.212
649.75	4.188
649.94	4.185
650.13	4.225
650.32	4.238
650.51	4.224
650.70	4.235
650.89	4.257
651.08	4.270
651.27	4.295
651.46	4.283
651.65	4.284
651.83	4.306
652.02	4.316
652.21	4.292
652.40	4.291
652.59	4.306
652.78	4.329
652.97	4.330
653.16	4.327
653.35	4.321
653.54	4.351
653.73	4.376
653.92	4.358
654.11	4.341
654.30	4.349
654.49	4.363
654.68	4.363
654.86	4.368
655.05	4.360
655.24	4.374
655.43	4.363
655.62	4.350
655.81	4.334
656.00	4.362
656.19	4.394
656.38	4.393
656.57	4.387
656.76	4.378
656.95	4.359
657.13	4.355
657.32	4.380
657.51	4.400
657.70	4.441
657.89	4.449
658.08	4.472
658.27	4.473
658.46	4.462
658.65	4.457
658.84	4.460
659.02	4.482
659.21	4.504
659.40	4.509
659.59	4.533
659.78	4.538
659.97	4.546
660.16	4.548
660.35	4.535
660.54	4.540
660.72	4.537
660.91	4.543
661.10	4.551
661.29	4.570
661.48	4.551
661.67	4.535
661.86	4.549
662.05	4.537
662.23	4.549
662.42	4.557
662.61	4.584
662.80	4.604
662.99	4.657
663.18	4.669
663.37	4.646
663.56	4.658
663.74	4.644
663.93	4.609
664.12	4.634
664.31	4.615
664.50	4.631
664.69	4.651
664.87	4.653
665.06	4.625
665.25	4.627
665.44	4.608
665.63	4.597
665.82	4.616
666.01	4.630
666.19	4.618
666.38	4.651
666.57	4.630
666.76	4.610
666.95	4.616
667.14	4.617
667.32	4.615
667.51	4.667
667.70	4.680
667.89	4.693
668.08	4.695
668.26	4.713
668.45	4.676
668.64	4.675
668.83	4.705
669.02	4.726
669.21	4.718
669.39	4.734
669.58	4.708
669.77	4.714
669.96	4.728
670.15	4.741
670.33	4.718
670.52	4.733
670.71	4.750
670.90	4.721
671.09	4.700
671.27	4.721
671.46	4.703
671.65	4.719
671.84	4.733
672.03	4.754
672.21	4.753
672.40	4.790
672.59	4.769
672.78	4.786
672.96	4.792
673.15	4.813
673.34	4.815
673.53	4.831
673.72	4.847
673.90	4.854
674.09	4.863
674.28	4.892
674.47	4.904
674.65	4.974
674.84	4.969
675.03	5.013
675.22	4.999
675.41	5.009
675.59	4.993
675.78	5.015
675.97	5.021
676.16	5.002
676.34	4.983
676.53	4.983
676.72	4.961
676.91	4.970
677.09	4.971
677.28	5.005
677.47	5.019
677.66	5.046
677.84	5.049
678.03	5.079
678.22	5.099
678.41	5.104
678.59	5.103
678.78	5.095
678.97	5.115
679.15	5.116
679.34	5.109
679.53	5.115
679.72	5.105
679.90	5.114
680.09	5.104
680.28	5.083
680.47	5.059
680.65	5.049
680.84	5.074
681.03	5.089
681.21	5.086
681.40	5.087
681.59	5.097
681.78	5.112
681.96	5.109
682.15	5.108
682.34	5.120
682.52	5.156
682.71	5.155
682.90	5.165
683.08	5.145
683.27	5.138
683.46	5.130
683.65	5.122
683.83	5.136
684.02	5.133
684.21	5.129
684.39	5.134
684.58	5.136
684.77	5.171
684.95	5.140
685.14	5.141
685.33	5.168
685.51	5.214
685.70	5.200
685.89	5.177
686.07	5.165
686.26	5.172
686.45	5.188
686.63	5.195
686.82	5.206
687.01	5.220
687.20	5.264
687.38	5.276
687.57	5.258
687.75	5.305
687.94	5.354
688.13	5.380
688.31	5.382
688.50	5.411
688.69	5.411
688.87	5.415
689.06	5.417
689.25	5.404
689.43	5.381
689.62	5.395
689.81	5.394
689.99	5.401
690.18	5.399
690.37	5.400
690.55	5.392
690.74	5.399
690.93	5.410
691.11	5.427
691.30	5.448
691.48	5.477
691.67	5.472
691.86	5.480
692.04	5.455
692.23	5.463
692.42	5.507
692.60	5.521
692.79	5.504
692.97	5.499
693.16	5.525
693.35	5.519
693.53	5.526
693.72	5.536
693.90	5.551
694.09	5.585
694.28	5.593
694.46	5.563
694.65	5.579
694.83	5.618
695.02	5.605
695.21	5.631
695.39	5.644
695.58	5.683
695.76	5.688
695.95	5.685
696.14	5.682
696.32	5.692
696.51	5.712
696.69	5.691
696.88	5.731
697.07	5.753
697.25	5.720
697.44	5.718
697.62	5.691
697.81	5.683
697.99	5.651
698.18	5.655
698.37	5.649
698.55	5.672
698.74	5.697
698.92	5.681
699.11	5.679
699.29	5.685
699.48	5.679
699.67	5.703
699.85	5.701
700.04	5.739
700.22	5.734
700.41	5.762
700.59	5.759
700.78	5.742
700.96	5.751
701.15	5.763
701.34	5.761
701.52	5.810
701.71	5.800
701.89	5.881
702.08	5.881
702.26	5.909
702.45	5.903
702.63	5.863
702.82	5.842
703.00	5.855
703.19	5.867
703.38	5.897
703.56	5.824
703.75	5.820
703.93	5.806
704.12	5.781
704.30	5.774
704.49	5.788
704.67	5.862
704.86	5.916
705.04	5.937
705.23	5.934
705.41	5.927
705.60	5.984
705.78	5.989
705.97	6.001
706.15	6.051
706.34	6.092
706.52	6.094
706.71	6.078
706.89	6.076
707.08	6.040
707.26	6.060
707.45	6.055
707.63	6.059
707.82	6.072
708.00	6.032
708.19	6.007
708.37	5.997
708.56	6.001
708.74	5.985
708.93	5.997
709.11	6.024
709.30	6.036
709.48	6.061
709.67	6.063
709.85	6.054
710.04	6.109
710.22	6.134
710.41	6.130
710.59	6.152
710.77	6.200
710.96	6.206
711.14	6.190
711.33	6.196
711.51	6.218
711.70	6.219
711.88	6.246
712.07	6.209
712.25	6.206
712.44	6.221
712.62	6.185
712.80	6.186
712.99	6.214
713.17	6.216
713.36	6.213
713.54	6.230
713.73	6.259
713.91	6.255
714.10	6.232
714.28	6.243
714.46	6.287
714.65	6.325
714.83	6.359
715.02	6.340
715.20	6.365
715.39	6.363
715.57	6.338
715.75	6.319
715.94	6.328
716.12	6.404
716.31	6.402
716.49	6.375
716.68	6.364
716.86	6.365
717.04	6.372
717.23	6.444
717.41	6.491
717.60	6.501
717.78	6.538
717.96	6.518
718.15	6.521
718.33	6.498
718.52	6.503
718.70	6.565
718.88	6.522
719.07	6.550
719.25	6.485
719.44	6.470
719.62	6.497
719.80	6.499
719.99	6.550
720.17	6.500
720.36	6.560
720.54	6.578
720.72	6.591
720.91	6.617
721.09	6.597
721.27	6.593
721.46	6.600
721.64	6.576
721.83	6.600
722.01	6.595
722.19	6.658
722.38	6.641
722.56	6.667
722.74	6.621
722.93	6.682
723.11	6.670
723.30	6.687
723.48	6.710
723.66	6.738
723.85	6.764
724.03	6.782
724.21	6.787
724.40	6.820
724.58	6.832
724.76	6.841
724.95	6.729
725.13	6.843
725.31	6.854
725.50	6.890
725.68	6.904
725.86	6.891
726.05	6.875
726.23	6.896
726.41	6.929
726.60	6.886
726.78	6.883
726.96	6.959
727.15	6.862
727.33	6.905
727.51	6.860
727.70	6.859
727.88	6.856
728.06	6.864
728.25	6.844
728.43	6.829
728.61	6.873
728.80	6.913
728.98	6.954
729.16	7.038
729.34	6.992
729.53	7.003
729.71	7.049
729.89	7.090
730.08	7.116
730.26	7.132
730.44	7.117
730.63	7.135
730.81	7.127
730.99	7.125
731.17	7.137
731.36	7.167
731.54	7.168
731.72	7.214
731.91	7.195
732.09	7.226
732.27	7.224
732.45	7.279
732.64	7.291
732.82	7.290
733.00	7.283
733.19	7.267
733.37	7.278
733.55	7.315
733.73	7.277
733.92	7.326
734.10	7.305
734.28	7.337
734.46	7.309
734.65	7.318
734.83	7.334
735.01	7.321
735.19	7.276
735.38	7.246
735.56	7.251
735.74	7.282
735.92	7.222
736.11	7.226
736.29	7.217
736.47	7.270
736.65	7.254
736.84	7.302
737.02	7.339
737.20	7.398
737.38	7.470
737.57	7.467
737.75	7.444
737.93	7.481
738.11	7.482
738.30	7.501
738.48	7.492
738.66	7.451
738.84	7.430
739.02	7.436
739.21	7.416
739.39	7.426
739.57	7.478
739.75	7.443
739.93	7.469
740.12	7.501
740.30	7.520
740.48	7.495
740.66	7.513
740.85	7.566
741.03	7.566
741.21	7.581
741.39	7.558
741.57	7.534
741.76	7.557
741.94	7.503
742.12	7.512
742.30	7.552
742.48	7.565
742.66	7.634
742.85	7.600
743.03	7.627
743.21	7.652
743.39	7.669
743.57	7.627
743.76	7.664
743.94	7.676
744.12	7.658
744.30	7.645
744.48	7.669
744.66	7.598
744.85	7.588
745.03	7.511
745.21	7.556
745.39	7.579
745.57	7.633
745.75	7.656
745.94	7.690
746.12	7.735
746.30	7.713
746.48	7.712
746.66	7.825
746.84	7.798
747.02	7.884
747.21	7.888
747.39	7.915
747.57	7.962
747.75	7.929
747.93	7.968
748.11	8.016
748.29	7.994
748.48	8.027
748.66	7.982
748.84	8.029
749.02	8.032
749.20	8.024
749.38	8.017
749.56	7.974
749.75	7.973
749.93	7.938
750.11	7.905
750.29	7.926
750.47	7.985
750.65	7.925
750.83	7.974
751.01	7.998
751.19	8.016
751.38	8.061
751.56	8.059
751.74	8.100
751.92	8.133
752.10	8.147
752.28	8.173
752.46	8.151
752.64	8.204
752.82	8.240
753.00	8.232
753.19	8.231
753.37	8.184
753.55	8.178
753.73	8.197
753.91	8.203
754.09	8.171
754.27	8.184
754.45	8.119
754.63	8.192
754.81	8.097
754.99	8.071
755.17	8.130
755.36	8.154
755.54	8.175
755.72	8.175
755.90	8.211
756.08	8.240
756.26	8.263
756.44	8.317
756.62	8.291
756.80	8.402
756.98	8.417
757.16	8.367
757.34	8.393
757.52	8.503
757.70	8.489
757.88	8.463
758.06	8.476
758.24	8.444
758.42	8.453
758.61	8.473
758.79	8.444
758.97	8.453
759.15	8.432
759.33	8.457
759.51	8.414
759.69	8.531
759.87	8.538
760.05	8.575
760.23	8.594
760.41	8.630
760.59	8.612
760.77	8.651
760.95	8.730
761.13	8.755
761.31	8.749
761.49	8.774
761.67	8.696
761.85	8.745
762.03	8.727
762.21	8.793
762.39	8.767
762.57	8.838
762.75	8.828
762.93	8.763
763.11	8.755
763.29	8.720
763.47	8.679
763.65	8.669
763.83	8.632
764.01	8.609
764.19	8.584
764.37	8.611
764.55	8.560
764.73	8.565
764.91	8.584
765.09	8.602
765.27	8.596
765.45	8.635
765.63	8.651
765.81	8.660
765.99	8.702
766.17	8.740
766.35	8.718
766.53	8.765
766.71	8.743
766.89	8.790
767.07	8.846
767.25	8.912
767.43	8.885
767.61	8.980
767.78	9.021
767.96	9.037
768.14	8.950
768.32	9.005
768.50	9.054
768.68	9.106
768.86	9.062
769.04	9.059
769.22	9.084
769.40	9.170
769.58	9.098
769.76	9.104
769.94	9.117
770.12	9.235
770.30	9.194
770.48	9.123
770.66	9.115
770.84	9.153
771.01	9.120
771.19	9.064
771.37	9.081
771.55	9.149
771.73	9.176
771.91	9.210
772.09	9.181
772.27	9.238
772.45	9.253
772.63	9.255
772.81	9.272
772.99	9.229
773.16	9.291
773.34	9.305
773.52	9.254
773.70	9.241
773.88	9.290
774.06	9.333
774.24	9.347
774.42	9.428
774.60	9.468
774.78	9.456
774.95	9.509
775.13	9.538
775.31	9.440
775.49	9.496
775.67	9.551
775.85	9.493
776.03	9.513
776.21	9.511
776.38	9.447
776.56	9.467
776.74	9.530
776.92	9.568
777.10	9.563
777.28	9.668
777.46	9.607
777.64	9.631
777.81	9.668
777.99	9.583
778.17	9.562
778.35	9.616
778.53	9.683
778.71	9.705
778.89	9.718
779.06	9.740
779.24	9.638
779.42	9.620
779.60	9.535
779.78	9.478
779.96	9.657
780.13	9.755
780.31	9.798
780.49	9.767
780.67	9.691
780.85	9.686
781.03	9.696
781.20	9.802
781.38	9.879
781.56	9.975
781.74	10.037
781.92	9.917
782.10	9.822
782.27	9.835
782.45	9.806
782.63	9.788
782.81	9.930
782.99	9.959
783.17	9.910
783.34	9.930
783.52	9.824
783.70	9.867
783.88	9.892
784.06	9.987
784.23	9.935
784.41	9.972
784.59	10.090
784.77	10.003
784.95	10.032
785.12	10.011
785.30	10.040
785.48	10.223
785.66	10.186
785.83	10.207
786.01	10.217
786.19	10.285
786.37	10.183
786.55	10.134
786.72	10.109
786.90	10.174
787.08	10.296
787.26	10.277
787.43	10.282
787.61	10.303
787.79	10.270
787.97	10.190
788.15	10.152
788.32	10.247
788.50	10.265
788.68	10.278
788.86	10.230
789.03	10.219
789.21	10.276
789.39	10.241
789.57	10.237
789.74	10.363
789.92	10.384
790.10	10.429
790.28	10.499
790.45	10.490
790.63	10.615
790.81	10.632
790.99	10.628
791.16	10.570
791.34	10.611
791.52	10.689
791.69	10.656
791.87	10.649
792.05	10.666
792.23	10.685
792.40	10.679
792.58	10.569
792.76	10.491
792.94	10.466
793.11	10.526
793.29	10.512
793.47	10.452
793.64	10.466
793.82	10.572
794.00	10.507
794.18	10.333
794.35	10.420
794.53	10.385
794.71	10.405
794.88	10.544
795.06	10.528
795.24	10.512
795.41	10.565
795.59	10.634
795.77	10.633
795.94	10.626
796.12	10.779
796.30	10.802
796.48	10.809
796.65	10.830
796.83	10.777
797.01	10.841
797.18	10.783
797.36	10.804
797.54	10.662
797.71	10.684
797.89	10.769
798.07	10.757
798.24	10.802
798.42	10.713
798.60	10.758
798.77	10.808
798.95	10.719
799.13	10.712
799.30	10.732
799.48	10.790
799.66	10.812
799.83	10.809
800.01	10.800
800.18	10.713
800.36	10.900
800.54	10.913
800.71	10.848
800.89	10.912
801.07	11.015
801.24	11.069
801.42	11.179
801.60	11.273
801.77	11.281
801.95	11.194
802.12	11.255
802.30	11.269
802.48	11.349
802.65	11.455
802.83	11.573
803.01	11.563
803.18	11.497
803.36	11.553
803.53	11.466
803.71	11.524
803.89	11.628
804.06	11.648
804.24	11.751
804.41	11.839
804.59	11.802
804.77	11.886
804.94	11.991
805.12	11.971
805.29	11.908
805.47	11.897
805.65	11.938
805.82	12.001
806.00	11.995
806.17	11.803
806.35	11.728
806.53	11.690
806.70	11.566
806.88	11.568
807.05	11.672
807.23	11.597
807.40	11.631
807.58	11.557
807.76	11.602
807.93	11.549
808.11	11.561
808.28	11.445
808.46	11.622
808.63	11.706
808.81	11.731
808.99	11.705
809.16	11.737
809.34	11.739
809.51	11.597
809.69	11.519
809.86	11.530
810.04	11.639
810.21	11.683
810.39	11.523
810.57	11.391
810.74	11.382
810.92	11.375
811.09	11.451
811.27	11.447
811.44	11.802
811.62	11.877
811.79	12.016
811.97	11.946
812.14	12.058
812.32	12.179
812.49	12.244
812.67	12.291
812.84	12.249
813.02	12.358
813.19	12.328
813.37	12.160
813.55	11.971
813.72	11.966
813.90	12.034
814.07	12.029
814.25	12.061
814.42	12.133
814.60	12.035
814.77	12.041
814.95	11.903
815.12	11.947
815.30	12.064
815.47	12.208
815.65	12.214
815.82	12.392
816.00	12.465
816.17	12.327
816.35	12.200
816.52	12.313
816.69	12.487
816.87	12.617
817.04	12.572
817.22	12.544
817.39	12.522
817.57	12.549
817.74	12.494
817.92	12.454
818.09	12.444
818.27	12.462
818.44	12.416
818.62	12.232
818.79	12.152
818.97	12.295
819.14	12.342
819.32	12.391
819.49	12.447
819.66	12.462
819.84	12.397
820.01	12.468
820.19	12.489
820.36	12.413
820.54	12.489
820.71	12.504
820.89	12.507
821.06	12.536
821.23	12.578
821.41	12.493
821.58	12.370
821.76	12.310
821.93	12.221
822.11	12.142
822.28	12.100
822.45	12.039
822.63	12.009
822.80	11.983
822.98	11.964
823.15	11.948
823.33	11.961
823.50	11.987
823.67	12.004
823.85	12.046
824.02	12.121
824.20	12.205
824.37	12.326
824.54	12.436
824.72	12.551
824.89	12.636
825.07	12.716
825.24	12.807
825.41	12.905
825.59	12.999
825.76	13.079
825.94	13.160
826.11	13.178
826.28	13.198
826.46	13.192
826.63	13.142
826.80	13.149
826.98	13.090
827.15	13.042
827.33	12.976
827.50	12.921
827.67	12.952
827.85	12.898
828.02	12.927
828.19	12.930
828.37	12.923
828.54	12.974
828.72	13.012
828.89	13.080
829.06	13.131
829.24	13.237
829.41	13.331
829.58	13.304
829.76	13.381
829.93	13.415
830.10	13.445
830.28	13.519
830.45	13.544
830.62	13.534
830.80	13.581
830.97	13.547
831.14	13.526
831.32	13.655
831.49	13.686
831.66	13.713
831.84	13.666
832.01	13.604
832.18	13.662
832.36	13.631
832.53	13.583
832.70	13.614
832.88	13.672
833.05	13.689
833.22	13.592
833.40	13.572
833.57	13.557
833.74	13.491
833.91	13.461
834.09	13.390
834.26	13.336
834.43	13.349
834.61	13.336
834.78	13.291
834.95	13.281
835.13	13.255
835.30	13.211
835.47	13.225
835.64	13.304
835.82	13.350
835.99	13.421
836.16	13.522
836.34	13.629
836.51	13.709
836.68	13.813
836.85	13.793
837.03	13.961
837.20	14.097
837.37	14.066
837.54	14.116
837.72	14.232
837.89	14.168
838.06	14.233
838.24	14.093
838.41	14.197
838.58	14.185
838.75	14.156
838.93	14.041
839.10	14.134
839.27	14.340
839.44	14.413
839.62	14.323
839.79	14.446
839.96	14.332
840.13	14.226
840.31	13.958
840.48	13.970
840.65	14.049
840.82	14.128
840.99	14.139
841.17	14.034
841.34	14.103
841.51	14.176
841.68	14.237
841.86	14.409
842.03	14.633
842.20	14.849
842.37	14.909
842.55	14.943
842.72	14.844
842.89	14.683
843.06	14.655
843.23	14.227
843.41	14.278
843.58	14.189
843.75	14.236
843.92	14.404
844.09	14.414
844.27	14.456
844.44	14.451
844.61	14.739
844.78	14.723
844.95	14.659
845.13	15.081
845.30	15.058
845.47	15.045
845.64	15.078
845.81	14.765
845.98	14.658
846.16	14.687
846.33	14.797
846.50	14.672
846.67	14.824
846.84	15.436
847.02	15.438
847.19	15.447
847.36	15.346
847.53	14.752
847.70	14.581
847.87	14.810
848.04	14.862
848.22	14.985
848.39	15.111
848.56	15.249
848.73	15.024
848.90	14.946
849.07	15.048
849.25	15.143
849.42	15.572
849.59	15.541
849.76	15.426
849.93	15.644
850.10	15.407
850.27	14.923
850.45	15.011
850.62	15.162
850.79	15.236
850.96	15.016
851.13	14.978
851.30	14.428
851.47	14.862
851.64	14.581
851.82	14.197
851.99	14.630
852.16	14.925
852.33	14.712
852.50	14.554
852.67	14.455
852.84	14.453
853.01	14.425
853.18	15.023
853.35	14.729
853.53	15.064
853.70	15.383
853.87	15.283
854.04	15.328
854.21	15.792
854.38	15.511
854.55	15.404
854.72	15.250
854.89	15.482
855.06	15.785
855.23	15.947
855.41	15.902
855.58	15.633
855.75	15.573
855.92	15.451
856.09	15.269
856.26	15.445
856.43	15.500
856.60	15.650
856.77	15.321
856.94	14.903
857.11	14.782
857.28	14.728
857.45	14.547
857.62	14.464
857.80	14.054
857.97	13.710
858.14	13.548
858.31	13.854
858.48	14.030
858.65	14.537
858.82	14.672
858.99	14.963
859.16	14.826
859.33	15.023
859.50	14.894
859.67	15.607
859.84	15.676
860.01	15.878
860.18	15.605
860.35	15.723
860.52	15.213
860.69	14.954
860.86	14.999
861.03	14.904
861.20	14.827
861.37	15.056
861.54	14.973
861.71	14.919
861.88	15.223
862.05	15.586
862.22	15.522
862.39	15.983
862.56	15.867
862.73	16.150
862.90	16.154
863.07	16.001
863.24	16.004
863.41	15.921
863.58	16.408
863.75	16.290
863.92	16.016
864.09	15.797
864.26	15.430
864.43	15.672
864.60	15.247
864.77	15.656
864.94	16.217
865.11	16.431
865.28	16.542
865.45	16.438
865.62	16.165
865.79	16.417
865.96	16.464
866.13	16.671
866.30	17.077
866.47	17.242
866.64	16.949
866.81	16.560
866.98	16.620
867.15	16.338
867.32	16.095
867.49	16.020
867.66	15.919
867.82	15.992
867.99	16.277
868.16	16.334
868.33	16.041
868.50	16.111
868.67	16.536
868.84	16.475
869.01	16.834
869.18	17.239
869.35	17.891
869.52	18.268
869.69	18.722
869.86	18.867
870.03	18.641
870.19	18.766
870.36	18.879
870.53	18.404
870.70	18.119
870.87	18.474
871.04	18.270
871.21	17.939
871.38	17.895
871.55	17.565
871.72	17.018
871.89	16.977
872.05	17.014
872.22	16.647
872.39	16.819
872.56	17.137
872.73	16.462
872.90	16.613
873.07	16.840
873.24	16.817
873.41	16.845
873.57	17.058
873.74	17.208
873.91	17.113
874.08	17.639
874.25	17.709
874.42	17.237
874.59	17.834
874.76	17.598
874.92	17.603
875.09	17.271
875.26	17.214
875.43	17.198
875.60	17.038
875.77	17.383
875.94	17.411
876.11	17.251
876.27	17.580
876.44	17.407
876.61	17.825
876.78	17.679
876.95	17.578
877.12	17.609
877.28	17.698
877.45	17.698
877.62	17.514
877.79	17.253
877.96	17.728
878.13	17.492
878.29	17.396
878.46	17.281
878.63	17.481
878.80	17.672
878.97	17.826
879.14	17.833
879.30	17.897
879.47	18.029
879.64	18.187
879.81	17.917
879.98	18.013
880.14	18.037
880.31	17.875
880.48	17.786
880.65	17.907
880.82	17.762
880.98	17.625
881.15	17.466
881.32	17.290
881.49	17.167
881.66	17.041
881.82	16.955
881.99	16.861
882.16	16.840
882.33	16.816
882.50	16.760
882.66	16.785
882.83	16.801
883.00	16.833
883.17	16.899
883.33	16.976
883.50	17.118
883.67	17.233
883.84	17.374
884.01	17.503
884.17	17.567
884.34	17.661
884.51	17.713
884.68	17.831
884.84	17.941
885.01	18.025
885.18	18.078
885.35	18.058
885.51	18.051
885.68	18.105
885.85	18.179
886.02	18.276
886.18	18.345
886.35	18.335
886.52	18.285
886.69	18.222
886.85	18.221
887.02	18.203
887.19	18.171
887.35	18.370
887.52	18.440
887.69	18.286
887.86	18.401
888.02	18.417
888.19	18.420
888.36	19.205
888.53	18.942
888.69	19.604
888.86	18.693
889.03	17.413
>>>>>End Spectral Data<<<<<
