OOIBase32 Version 2.0.6.5 Data File
++++++++++++++++++++++++++++++++++++
Date: 11-17-2016, 11:08:08
User: Valued Ocean Optics Customer
Spectrometer Serial Number: USB4C01507
Spectrometer Channel: Master
Integration Time (msec): 49
Spectra Averaged: 25
Boxcar Smoothing: 5
Correct for Electrical Dark: Enabled
Time Normalized: Disabled
Dual-beam Reference: Disabled
Reference Channel: Master
Temperature: Not acquired
Spectrometer Type: S4000
ADC Type: USB4000
Number of Pixels in File: 3648
Graph Title: 
>>>>>Begin Spectral Data<<<<<
178.53	1566.575
178.74	2156.920
178.96	138.374
179.18	-10.518
179.39	-200.436
179.61	-21.337
179.82	67.087
180.04	189.506
180.25	163.474
180.47	43.905
180.69	256.170
180.90	-531.414
181.12	84.448
181.33	-33.821
181.55	6.433
181.76	-8347.641
181.98	153.244
182.20	174.871
182.41	-9.185
182.63	26.251
182.84	11.298
183.06	-0.731
183.27	4.460
183.49	-0.603
183.71	-3.545
183.92	-7.911
184.14	-28.030
184.35	-19.726
184.57	-22.581
184.78	-6.100
185.00	-7.784
185.21	-2.463
185.43	13.742
185.65	20.092
185.86	18.057
186.08	18.704
186.29	20.117
186.51	25.864
186.72	19.032
186.94	16.718
187.15	16.843
187.37	16.977
187.58	18.492
187.80	15.196
188.02	9.234
188.23	10.158
188.45	11.934
188.66	16.265
188.88	12.465
189.09	12.663
189.31	20.263
189.52	10.116
189.74	7.583
189.95	8.797
190.17	-1.675
190.38	-2.987
190.60	5.897
190.82	9.804
191.03	4.693
191.25	12.774
191.46	15.789
191.68	11.615
191.89	14.888
192.11	13.775
192.32	12.882
192.54	16.922
192.75	25.504
192.97	19.843
193.18	20.367
193.40	26.331
193.61	21.375
193.83	23.395
194.04	23.153
194.26	31.470
194.48	36.116
194.69	35.892
194.91	33.482
195.12	31.724
195.34	38.619
195.55	38.360
195.77	31.833
195.98	30.773
196.20	24.939
196.41	16.358
196.63	10.854
196.84	8.953
197.06	5.311
197.27	6.918
197.49	1.436
197.70	-6.620
197.92	-9.021
198.13	-5.593
198.35	-12.181
198.56	-11.941
198.78	-6.745
198.99	-4.733
199.21	-4.922
199.42	2.791
199.64	6.861
199.85	8.666
200.07	14.010
200.28	16.546
200.50	17.573
200.71	21.856
200.93	22.057
201.14	23.471
201.36	25.489
201.57	26.016
201.79	24.121
202.00	19.996
202.22	19.179
202.43	18.951
202.65	12.898
202.86	10.361
203.08	8.278
203.29	3.821
203.51	1.532
203.72	-0.052
203.94	-0.461
204.15	1.557
204.37	6.116
204.58	3.279
204.80	3.499
205.01	11.023
205.22	10.989
205.44	13.778
205.65	13.637
205.87	13.648
206.08	13.528
206.30	16.491
206.51	13.479
206.73	11.181
206.94	12.814
207.16	11.299
207.37	5.863
207.59	4.193
207.80	2.009
208.02	6.498
208.23	9.987
208.45	7.455
208.66	2.464
208.88	3.981
209.09	1.020
209.30	-0.662
209.52	-3.620
209.73	0.535
209.95	3.440
210.16	1.466
210.38	2.640
210.59	-1.654
210.81	-2.476
211.02	-1.917
211.24	-3.702
211.45	-4.029
211.66	0.946
211.88	2.347
212.09	-0.790
212.31	-0.500
212.52	3.357
212.74	-0.352
212.95	-1.568
213.17	0.272
213.38	1.095
213.60	5.279
213.81	8.564
214.02	8.923
214.24	7.509
214.45	4.765
214.67	2.623
214.88	-0.173
215.10	0.831
215.31	3.859
215.53	2.063
215.74	-0.297
215.95	-0.899
216.17	-2.530
216.38	-6.480
216.60	-6.897
216.81	-3.974
217.03	-0.867
217.24	-1.184
217.45	-1.098
217.67	-0.351
217.88	1.908
218.10	2.043
218.31	1.253
218.53	1.723
218.74	2.586
218.95	0.115
219.17	-0.690
219.38	-1.413
219.60	1.216
219.81	2.299
220.03	1.088
220.24	1.382
220.45	3.248
220.67	3.105
220.88	4.111
221.10	4.266
221.31	6.627
221.53	6.516
221.74	6.526
221.95	5.441
222.17	3.700
222.38	3.753
222.60	2.832
222.81	1.748
223.02	1.960
223.24	1.764
223.45	1.616
223.67	0.936
223.88	0.909
224.09	1.270
224.31	1.929
224.52	2.967
224.74	2.610
224.95	3.618
225.16	4.397
225.38	4.127
225.59	3.686
225.81	3.680
226.02	3.657
226.23	3.806
226.45	3.536
226.66	2.695
226.88	2.668
227.09	3.171
227.30	2.967
227.52	2.935
227.73	2.765
227.95	2.859
228.16	2.954
228.37	2.986
228.59	3.052
228.80	3.033
229.02	3.213
229.23	3.245
229.44	3.186
229.66	3.199
229.87	3.209
230.08	3.293
230.30	3.278
230.51	3.283
230.73	3.257
230.94	3.160
231.15	3.152
231.37	3.055
231.58	2.890
231.80	2.888
232.01	3.080
232.22	3.005
232.44	3.281
232.65	3.442
232.86	3.221
233.08	3.295
233.29	3.259
233.51	3.179
233.72	3.171
233.93	3.291
234.15	3.162
234.36	3.055
234.57	3.029
234.79	2.923
235.00	3.022
235.21	3.382
235.43	3.480
235.64	3.442
235.86	3.729
236.07	3.653
236.28	3.507
236.50	3.369
236.71	3.485
236.92	3.697
237.14	3.719
237.35	3.473
237.56	3.273
237.78	3.217
237.99	3.302
238.20	3.025
238.42	3.330
238.63	3.211
238.84	3.678
239.06	3.235
239.27	2.889
239.48	2.876
239.70	2.848
239.91	2.797
240.13	2.735
240.34	2.707
240.55	2.676
240.77	2.655
240.98	2.875
241.19	2.826
241.41	2.758
241.62	2.872
241.83	2.822
242.05	2.875
242.26	2.837
242.47	2.825
242.69	2.828
242.90	2.894
243.11	2.854
243.33	2.814
243.54	2.785
243.75	2.965
243.97	2.860
244.18	2.962
244.39	2.948
244.61	2.849
244.82	2.953
245.03	2.853
245.24	2.838
245.46	2.886
245.67	2.872
245.88	2.833
246.10	2.737
246.31	2.746
246.52	2.676
246.74	2.627
246.95	2.625
247.16	2.600
247.38	2.624
247.59	2.625
247.80	2.623
248.02	2.614
248.23	2.600
248.44	2.614
248.66	2.629
248.87	2.641
249.08	2.685
249.29	2.779
249.51	2.894
249.72	2.894
249.93	2.989
250.15	3.042
250.36	3.016
250.57	2.946
250.79	3.075
251.00	3.066
251.21	3.079
251.42	3.092
251.64	2.974
251.85	2.892
252.06	2.990
252.28	2.839
252.49	2.726
252.70	2.610
252.91	2.620
253.13	2.506
253.34	2.442
253.55	2.409
253.77	2.351
253.98	2.556
254.19	2.342
254.40	2.266
254.62	2.191
254.83	1.985
255.04	2.270
255.26	2.228
255.47	2.203
255.68	2.180
255.89	2.274
256.11	2.325
256.32	1.990
256.53	2.225
256.75	2.120
256.96	2.241
257.17	2.461
257.38	2.583
257.60	2.755
257.81	2.738
258.02	2.715
258.23	2.574
258.45	2.490
258.66	2.603
258.87	2.544
259.09	2.503
259.30	2.502
259.51	2.425
259.72	2.380
259.94	2.302
260.15	2.307
260.36	2.380
260.57	2.406
260.79	2.437
261.00	2.377
261.21	2.378
261.42	2.439
261.64	2.386
261.85	2.431
262.06	2.447
262.27	2.604
262.49	2.600
262.70	2.531
262.91	2.615
263.12	2.515
263.34	2.563
263.55	2.562
263.76	2.454
263.97	2.624
264.19	2.864
264.40	2.753
264.61	2.632
264.82	2.568
265.04	2.613
265.25	2.445
265.46	2.555
265.67	2.668
265.88	2.689
266.10	2.634
266.31	2.511
266.52	2.342
266.73	2.498
266.95	2.529
267.16	2.528
267.37	2.423
267.58	2.427
267.80	2.457
268.01	2.380
268.22	2.322
268.43	2.420
268.64	2.463
268.86	2.482
269.07	2.322
269.28	2.262
269.49	2.349
269.71	2.383
269.92	2.295
270.13	2.363
270.34	2.295
270.55	2.365
270.77	2.357
270.98	2.309
271.19	2.357
271.40	2.407
271.61	2.404
271.83	2.407
272.04	2.354
272.25	2.451
272.46	2.333
272.68	2.478
272.89	2.459
273.10	2.394
273.31	2.417
273.52	2.363
273.74	2.263
273.95	2.260
274.16	2.262
274.37	2.324
274.58	2.309
274.80	2.403
275.01	2.406
275.22	2.372
275.43	2.489
275.64	2.544
275.86	2.599
276.07	2.641
276.28	2.753
276.49	2.795
276.70	2.710
276.91	2.677
277.13	2.526
277.34	2.446
277.55	2.488
277.76	2.352
277.97	2.284
278.19	2.289
278.40	2.361
278.61	2.254
278.82	2.263
279.03	2.321
279.24	2.405
279.46	2.439
279.67	2.409
279.88	2.267
280.09	2.313
280.30	2.338
280.52	2.317
280.73	2.292
280.94	2.329
281.15	2.229
281.36	2.287
281.57	2.307
281.79	2.369
282.00	2.376
282.21	2.446
282.42	2.533
282.63	2.555
282.84	2.515
283.06	2.593
283.27	2.594
283.48	2.580
283.69	2.511
283.90	2.411
284.11	2.343
284.32	2.350
284.54	2.323
284.75	2.223
284.96	2.160
285.17	2.291
285.38	2.260
285.59	2.254
285.81	2.315
286.02	2.367
286.23	2.398
286.44	2.431
286.65	2.442
286.86	2.433
287.07	2.470
287.29	2.461
287.50	2.365
287.71	2.355
287.92	2.421
288.13	2.392
288.34	2.276
288.55	2.289
288.77	2.282
288.98	2.145
289.19	2.253
289.40	2.315
289.61	2.495
289.82	2.481
290.03	2.415
290.24	2.395
290.46	2.363
290.67	2.472
290.88	2.466
291.09	2.443
291.30	2.575
291.51	2.559
291.72	2.499
291.93	2.412
292.15	2.397
292.36	2.492
292.57	2.488
292.78	2.467
292.99	2.351
293.20	2.392
293.41	2.375
293.62	2.414
293.84	2.436
294.05	2.494
294.26	2.411
294.47	2.467
294.68	2.469
294.89	2.474
295.10	2.463
295.31	2.518
295.52	2.469
295.73	2.458
295.95	2.424
296.16	2.404
296.37	2.390
296.58	2.481
296.79	2.471
297.00	2.419
297.21	2.384
297.42	2.375
297.63	2.367
297.84	2.358
298.06	2.344
298.27	2.351
298.48	2.350
298.69	2.308
298.90	2.207
299.11	2.243
299.32	2.263
299.53	2.283
299.74	2.304
299.95	2.306
300.16	2.243
300.38	2.329
300.59	2.259
300.80	2.210
301.01	2.148
301.22	2.140
301.43	2.064
301.64	2.120
301.85	2.047
302.06	2.069
302.27	2.073
302.48	2.166
302.69	2.100
302.91	2.140
303.12	2.174
303.33	2.259
303.54	2.230
303.75	2.188
303.96	2.167
304.17	2.172
304.38	2.145
304.59	2.139
304.80	2.051
305.01	2.061
305.22	2.022
305.43	2.025
305.64	1.993
305.85	2.020
306.06	2.081
306.28	2.091
306.49	2.118
306.70	2.067
306.91	1.995
307.12	2.028
307.33	1.959
307.54	2.024
307.75	1.980
307.96	1.970
308.17	1.957
308.38	1.877
308.59	1.839
308.80	1.802
309.01	1.874
309.22	1.939
309.43	1.989
309.64	2.000
309.85	1.953
310.06	1.959
310.27	1.950
310.48	1.997
310.70	2.090
310.91	2.084
311.12	2.086
311.33	2.083
311.54	2.003
311.75	1.944
311.96	1.975
312.17	1.959
312.38	1.937
312.59	1.958
312.80	1.940
313.01	1.850
313.22	1.837
313.43	1.837
313.64	1.729
313.85	1.747
314.06	1.789
314.27	1.775
314.48	1.832
314.69	1.866
314.90	1.885
315.11	1.973
315.32	1.993
315.53	1.989
315.74	1.936
315.95	2.031
316.16	2.041
316.37	1.908
316.58	1.865
316.79	1.813
317.00	1.823
317.21	1.718
317.42	1.603
317.63	1.620
317.84	1.640
318.05	1.609
318.26	1.533
318.47	1.549
318.68	1.680
318.89	1.684
319.10	1.653
319.31	1.632
319.52	1.725
319.73	1.723
319.94	1.758
320.15	1.702
320.36	1.845
320.57	1.880
320.78	1.851
320.99	1.773
321.20	1.825
321.41	1.824
321.62	1.776
321.83	1.804
322.04	1.746
322.25	1.665
322.46	1.658
322.67	1.658
322.88	1.614
323.09	1.654
323.30	1.644
323.51	1.591
323.72	1.552
323.93	1.554
324.14	1.534
324.35	1.581
324.56	1.639
324.77	1.667
324.98	1.578
325.19	1.607
325.40	1.611
325.61	1.658
325.82	1.682
326.03	1.737
326.24	1.794
326.45	1.776
326.65	1.764
326.86	1.704
327.07	1.759
327.28	1.797
327.49	1.821
327.70	1.731
327.91	1.699
328.12	1.691
328.33	1.640
328.54	1.639
328.75	1.656
328.96	1.685
329.17	1.648
329.38	1.557
329.59	1.533
329.80	1.535
330.01	1.673
330.22	1.704
330.43	1.707
330.64	1.742
330.85	1.658
331.05	1.605
331.26	1.583
331.47	1.614
331.68	1.644
331.89	1.704
332.10	1.660
332.31	1.632
332.52	1.621
332.73	1.623
332.94	1.688
333.15	1.738
333.36	1.742
333.57	1.779
333.78	1.725
333.99	1.701
334.19	1.640
334.40	1.683
334.61	1.698
334.82	1.734
335.03	1.699
335.24	1.685
335.45	1.607
335.66	1.668
335.87	1.598
336.08	1.617
336.29	1.626
336.50	1.650
336.71	1.711
336.91	1.675
337.12	1.570
337.33	1.616
337.54	1.566
337.75	1.629
337.96	1.524
338.17	1.567
338.38	1.554
338.59	1.625
338.80	1.554
339.01	1.506
339.21	1.498
339.42	1.596
339.63	1.567
339.84	1.626
340.05	1.611
340.26	1.621
340.47	1.613
340.68	1.678
340.89	1.617
341.10	1.681
341.30	1.670
341.51	1.645
341.72	1.670
341.93	1.663
342.14	1.584
342.35	1.646
342.56	1.670
342.77	1.676
342.98	1.663
343.18	1.686
343.39	1.708
343.60	1.660
343.81	1.675
344.02	1.660
344.23	1.653
344.44	1.673
344.65	1.583
344.85	1.571
345.06	1.566
345.27	1.562
345.48	1.522
345.69	1.541
345.90	1.610
346.11	1.613
346.32	1.574
346.52	1.572
346.73	1.543
346.94	1.594
347.15	1.657
347.36	1.616
347.57	1.629
347.78	1.636
347.98	1.619
348.19	1.583
348.40	1.578
348.61	1.646
348.82	1.677
349.03	1.714
349.24	1.718
349.44	1.653
349.65	1.686
349.86	1.712
350.07	1.701
350.28	1.665
350.49	1.632
350.70	1.608
350.90	1.552
351.11	1.532
351.32	1.550
351.53	1.541
351.74	1.562
351.95	1.538
352.15	1.516
352.36	1.585
352.57	1.584
352.78	1.664
352.99	1.683
353.20	1.697
353.40	1.692
353.61	1.609
353.82	1.578
354.03	1.568
354.24	1.576
354.45	1.606
354.65	1.575
354.86	1.599
355.07	1.521
355.28	1.570
355.49	1.563
355.70	1.563
355.90	1.613
356.11	1.661
356.32	1.645
356.53	1.641
356.74	1.604
356.94	1.541
357.15	1.542
357.36	1.565
357.57	1.514
357.78	1.485
357.99	1.508
358.19	1.519
358.40	1.512
358.61	1.577
358.82	1.619
359.03	1.616
359.23	1.676
359.44	1.693
359.65	1.673
359.86	1.724
360.07	1.754
360.27	1.771
360.48	1.799
360.69	1.804
360.90	1.790
361.11	1.842
361.31	1.852
361.52	1.855
361.73	1.838
361.94	1.864
362.15	1.795
362.35	1.777
362.56	1.774
362.77	1.752
362.98	1.738
363.18	1.688
363.39	1.622
363.60	1.641
363.81	1.657
364.02	1.635
364.22	1.660
364.43	1.696
364.64	1.711
364.85	1.696
365.05	1.689
365.26	1.677
365.47	1.715
365.68	1.708
365.89	1.674
366.09	1.679
366.30	1.691
366.51	1.674
366.72	1.687
366.92	1.706
367.13	1.713
367.34	1.713
367.55	1.714
367.75	1.701
367.96	1.731
368.17	1.765
368.38	1.753
368.58	1.763
368.79	1.738
369.00	1.755
369.21	1.757
369.41	1.753
369.62	1.724
369.83	1.713
370.04	1.734
370.24	1.718
370.45	1.712
370.66	1.723
370.87	1.666
371.07	1.653
371.28	1.607
371.49	1.570
371.70	1.552
371.90	1.583
372.11	1.620
372.32	1.633
372.53	1.647
372.73	1.633
372.94	1.584
373.15	1.650
373.36	1.677
373.56	1.734
373.77	1.778
373.98	1.791
374.19	1.774
374.39	1.786
374.60	1.801
374.81	1.795
375.01	1.818
375.22	1.815
375.43	1.814
375.64	1.809
375.84	1.767
376.05	1.752
376.26	1.751
376.46	1.758
376.67	1.702
376.88	1.683
377.09	1.690
377.29	1.658
377.50	1.685
377.71	1.682
377.91	1.704
378.12	1.710
378.33	1.715
378.54	1.733
378.74	1.741
378.95	1.770
379.16	1.787
379.36	1.744
379.57	1.750
379.78	1.753
379.99	1.751
380.19	1.722
380.40	1.745
380.61	1.720
380.81	1.685
381.02	1.691
381.23	1.689
381.43	1.657
381.64	1.730
381.85	1.734
382.05	1.723
382.26	1.712
382.47	1.710
382.67	1.728
382.88	1.726
383.09	1.743
383.30	1.731
383.50	1.758
383.71	1.749
383.92	1.697
384.12	1.698
384.33	1.705
384.54	1.711
384.74	1.742
384.95	1.698
385.16	1.712
385.36	1.735
385.57	1.751
385.78	1.715
385.98	1.733
386.19	1.733
386.40	1.764
386.60	1.745
386.81	1.724
387.02	1.711
387.22	1.731
387.43	1.722
387.64	1.720
387.84	1.712
388.05	1.723
388.26	1.708
388.46	1.708
388.67	1.715
388.88	1.744
389.08	1.786
389.29	1.787
389.49	1.760
389.70	1.758
389.91	1.715
390.11	1.705
390.32	1.699
390.53	1.720
390.73	1.726
390.94	1.688
391.15	1.684
391.35	1.658
391.56	1.656
391.77	1.672
391.97	1.692
392.18	1.730
392.38	1.771
392.59	1.783
392.80	1.786
393.00	1.789
393.21	1.801
393.42	1.808
393.62	1.837
393.83	1.842
394.04	1.840
394.24	1.829
394.45	1.834
394.65	1.818
394.86	1.818
395.07	1.803
395.27	1.807
395.48	1.770
395.68	1.768
395.89	1.752
396.10	1.757
396.30	1.725
396.51	1.751
396.72	1.731
396.92	1.720
397.13	1.704
397.33	1.699
397.54	1.698
397.75	1.728
397.95	1.726
398.16	1.716
398.36	1.704
398.57	1.729
398.78	1.702
398.98	1.729
399.19	1.741
399.39	1.781
399.60	1.791
399.81	1.799
400.01	1.819
400.22	1.816
400.42	1.846
400.63	1.836
400.84	1.851
401.04	1.859
401.25	1.829
401.45	1.803
401.66	1.764
401.86	1.760
402.07	1.754
402.28	1.751
402.48	1.730
402.69	1.721
402.89	1.727
403.10	1.721
403.31	1.733
403.51	1.733
403.72	1.753
403.92	1.765
404.13	1.771
404.33	1.777
404.54	1.777
404.75	1.808
404.95	1.812
405.16	1.804
405.36	1.806
405.57	1.805
405.77	1.808
405.98	1.798
406.18	1.774
406.39	1.751
406.60	1.745
406.80	1.715
407.01	1.697
407.21	1.682
407.42	1.698
407.62	1.698
407.83	1.677
408.03	1.661
408.24	1.674
408.45	1.680
408.65	1.735
408.86	1.738
409.06	1.769
409.27	1.766
409.47	1.761
409.68	1.757
409.88	1.786
410.09	1.813
410.29	1.829
410.50	1.846
410.71	1.871
410.91	1.849
411.12	1.851
411.32	1.828
411.53	1.831
411.73	1.833
411.94	1.821
412.14	1.822
412.35	1.797
412.55	1.802
412.76	1.776
412.96	1.778
413.17	1.765
413.37	1.769
413.58	1.797
413.78	1.810
413.99	1.843
414.19	1.897
414.40	1.880
414.61	1.886
414.81	1.890
415.02	1.909
415.22	1.903
415.43	1.920
415.63	1.914
415.84	1.907
416.04	1.899
416.25	1.856
416.45	1.822
416.66	1.835
416.86	1.851
417.07	1.839
417.27	1.827
417.48	1.824
417.68	1.822
417.89	1.828
418.09	1.831
418.30	1.832
418.50	1.842
418.71	1.839
418.91	1.829
419.12	1.813
419.32	1.808
419.53	1.813
419.73	1.823
419.94	1.819
420.14	1.800
420.34	1.795
420.55	1.785
420.75	1.801
420.96	1.806
421.16	1.809
421.37	1.817
421.57	1.845
421.78	1.844
421.98	1.831
422.19	1.844
422.39	1.867
422.60	1.874
422.80	1.880
423.01	1.872
423.21	1.878
423.42	1.869
423.62	1.866
423.83	1.849
424.03	1.847
424.23	1.860
424.44	1.844
424.64	1.845
424.85	1.844
425.05	1.858
425.26	1.864
425.46	1.876
425.67	1.878
425.87	1.875
426.08	1.902
426.28	1.895
426.48	1.897
426.69	1.917
426.89	1.926
427.10	1.949
427.30	1.957
427.51	1.955
427.71	1.948
427.92	1.942
428.12	1.951
428.32	1.909
428.53	1.907
428.73	1.913
428.94	1.906
429.14	1.875
429.35	1.854
429.55	1.837
429.76	1.844
429.96	1.842
430.16	1.871
430.37	1.879
430.57	1.898
430.78	1.920
430.98	1.909
431.19	1.923
431.39	1.927
431.59	1.916
431.80	1.936
432.00	1.897
432.21	1.881
432.41	1.872
432.61	1.880
432.82	1.872
433.02	1.886
433.23	1.878
433.43	1.881
433.64	1.890
433.84	1.905
434.04	1.898
434.25	1.922
434.45	1.949
434.66	1.932
434.86	1.920
435.06	1.928
435.27	1.908
435.47	1.937
435.68	1.918
435.88	1.905
436.08	1.891
436.29	1.888
436.49	1.888
436.70	1.864
436.90	1.878
437.10	1.889
437.31	1.871
437.51	1.862
437.71	1.848
437.92	1.850
438.12	1.843
438.33	1.852
438.53	1.849
438.73	1.848
438.94	1.862
439.14	1.861
439.35	1.860
439.55	1.884
439.75	1.891
439.96	1.897
440.16	1.907
440.36	1.919
440.57	1.926
440.77	1.930
440.97	1.942
441.18	1.940
441.38	1.954
441.59	1.951
441.79	1.941
441.99	1.945
442.20	1.920
442.40	1.909
442.60	1.914
442.81	1.894
443.01	1.884
443.21	1.869
443.42	1.861
443.62	1.852
443.83	1.850
444.03	1.849
444.23	1.860
444.44	1.883
444.64	1.889
444.84	1.888
445.05	1.883
445.25	1.881
445.45	1.887
445.66	1.891
445.86	1.892
446.06	1.900
446.27	1.902
446.47	1.896
446.67	1.903
446.88	1.910
447.08	1.916
447.28	1.921
447.49	1.938
447.69	1.937
447.89	1.951
448.10	1.956
448.30	1.949
448.50	1.935
448.71	1.929
448.91	1.917
449.11	1.911
449.32	1.916
449.52	1.927
449.72	1.925
449.93	1.930
450.13	1.908
450.33	1.908
450.53	1.910
450.74	1.934
450.94	1.943
451.14	1.942
451.35	1.949
451.55	1.945
451.75	1.948
451.96	1.942
452.16	1.930
452.36	1.939
452.57	1.942
452.77	1.956
452.97	1.952
453.17	1.956
453.38	1.978
453.58	1.951
453.78	1.918
453.99	1.914
454.19	1.920
454.39	1.932
454.59	1.936
454.80	1.942
455.00	1.947
455.20	1.939
455.41	1.923
455.61	1.911
455.81	1.917
456.01	1.944
456.22	1.968
456.42	1.954
456.62	1.962
456.83	1.952
457.03	1.949
457.23	1.931
457.43	1.939
457.64	1.961
457.84	1.951
458.04	1.952
458.25	1.948
458.45	1.933
458.65	1.936
458.85	1.923
459.06	1.915
459.26	1.905
459.46	1.910
459.66	1.907
459.87	1.906
460.07	1.905
460.27	1.903
460.47	1.898
460.68	1.900
460.88	1.897
461.08	1.903
461.28	1.911
461.49	1.913
461.69	1.918
461.89	1.923
462.09	1.912
462.30	1.913
462.50	1.929
462.70	1.938
462.90	1.947
463.11	1.960
463.31	1.959
463.51	1.957
463.71	1.951
463.92	1.951
464.12	1.950
464.32	1.961
464.52	1.966
464.72	1.957
464.93	1.949
465.13	1.943
465.33	1.929
465.53	1.918
465.74	1.934
465.94	1.937
466.14	1.926
466.34	1.918
466.54	1.913
466.75	1.901
466.95	1.898
467.15	1.905
467.35	1.894
467.56	1.896
467.76	1.919
467.96	1.904
468.16	1.907
468.36	1.907
468.57	1.927
468.77	1.932
468.97	1.934
469.17	1.938
469.37	1.937
469.58	1.941
469.78	1.951
469.98	1.942
470.18	1.945
470.38	1.955
470.59	1.951
470.79	1.939
470.99	1.942
471.19	1.945
471.39	1.941
471.60	1.934
471.80	1.925
472.00	1.926
472.20	1.935
472.40	1.945
472.61	1.938
472.81	1.950
473.01	1.950
473.21	1.937
473.41	1.930
473.61	1.927
473.82	1.954
474.02	1.957
474.22	1.954
474.42	1.945
474.62	1.947
474.82	1.952
475.03	1.958
475.23	1.958
475.43	1.982
475.63	1.998
475.83	2.005
476.03	1.981
476.24	1.986
476.44	1.994
476.64	1.984
476.84	1.977
477.04	1.968
477.24	1.960
477.45	1.961
477.65	1.955
477.85	1.951
478.05	1.947
478.25	1.954
478.45	1.955
478.65	1.951
478.86	1.957
479.06	1.950
479.26	1.967
479.46	1.966
479.66	1.981
479.86	1.981
480.06	1.984
480.27	1.983
480.47	1.977
480.67	1.967
480.87	1.963
481.07	1.964
481.27	1.989
481.47	1.991
481.68	2.000
481.88	2.004
482.08	2.011
482.28	2.021
482.48	2.036
482.68	2.035
482.88	2.037
483.08	2.048
483.29	2.052
483.49	2.032
483.69	2.018
483.89	2.015
484.09	2.015
484.29	2.012
484.49	2.012
484.69	2.008
484.89	2.011
485.10	2.015
485.30	2.012
485.50	2.013
485.70	2.026
485.90	2.042
486.10	2.049
486.30	2.046
486.50	2.043
486.70	2.039
486.90	2.033
487.11	2.033
487.31	2.030
487.51	2.024
487.71	2.014
487.91	2.017
488.11	2.015
488.31	2.019
488.51	2.021
488.71	2.023
488.91	2.025
489.11	2.038
489.32	2.035
489.52	2.040
489.72	2.047
489.92	2.056
490.12	2.060
490.32	2.065
490.52	2.052
490.72	2.040
490.92	2.040
491.12	2.031
491.32	2.021
491.52	2.022
491.72	2.022
491.92	2.020
492.13	2.025
492.33	2.029
492.53	2.037
492.73	2.039
492.93	2.056
493.13	2.063
493.33	2.078
493.53	2.095
493.73	2.092
493.93	2.095
494.13	2.090
494.33	2.079
494.53	2.078
494.73	2.066
494.93	2.072
495.13	2.058
495.33	2.059
495.53	2.053
495.73	2.047
495.94	2.058
496.14	2.057
496.34	2.052
496.54	2.049
496.74	2.047
496.94	2.053
497.14	2.038
497.34	2.048
497.54	2.035
497.74	2.028
497.94	2.027
498.14	2.029
498.34	2.027
498.54	2.038
498.74	2.039
498.94	2.041
499.14	2.033
499.34	2.048
499.54	2.035
499.74	2.043
499.94	2.055
500.14	2.058
500.34	2.062
500.54	2.067
500.74	2.063
500.94	2.068
501.14	2.067
501.34	2.074
501.54	2.066
501.74	2.060
501.94	2.057
502.14	2.054
502.34	2.052
502.54	2.027
502.74	2.022
502.94	2.020
503.14	2.031
503.34	2.032
503.54	2.036
503.74	2.042
503.94	2.053
504.14	2.051
504.34	2.059
504.54	2.071
504.74	2.088
504.94	2.094
505.14	2.098
505.34	2.095
505.54	2.104
505.74	2.098
505.94	2.100
506.14	2.099
506.34	2.111
506.54	2.122
506.74	2.110
506.94	2.101
507.14	2.095
507.34	2.091
507.54	2.088
507.74	2.066
507.94	2.066
508.14	2.066
508.34	2.069
508.54	2.058
508.74	2.054
508.94	2.063
509.13	2.069
509.33	2.082
509.53	2.095
509.73	2.098
509.93	2.110
510.13	2.116
510.33	2.115
510.53	2.113
510.73	2.121
510.93	2.105
511.13	2.106
511.33	2.105
511.53	2.098
511.73	2.094
511.93	2.099
512.13	2.105
512.33	2.110
512.53	2.114
512.73	2.109
512.92	2.116
513.12	2.128
513.32	2.128
513.52	2.140
513.72	2.146
513.92	2.139
514.12	2.139
514.32	2.133
514.52	2.124
514.72	2.119
514.92	2.118
515.12	2.115
515.32	2.107
515.52	2.107
515.71	2.106
515.91	2.094
516.11	2.102
516.31	2.102
516.51	2.101
516.71	2.112
516.91	2.122
517.11	2.134
517.31	2.125
517.51	2.138
517.71	2.133
517.90	2.129
518.10	2.136
518.30	2.133
518.50	2.125
518.70	2.125
518.90	2.124
519.10	2.122
519.30	2.121
519.50	2.134
519.69	2.132
519.89	2.136
520.09	2.134
520.29	2.142
520.49	2.144
520.69	2.162
520.89	2.171
521.09	2.164
521.29	2.163
521.48	2.167
521.68	2.155
521.88	2.145
522.08	2.154
522.28	2.169
522.48	2.158
522.68	2.162
522.88	2.145
523.07	2.148
523.27	2.158
523.47	2.174
523.67	2.176
523.87	2.196
524.07	2.201
524.27	2.200
524.47	2.184
524.66	2.186
524.86	2.182
525.06	2.188
525.26	2.188
525.46	2.182
525.66	2.177
525.85	2.176
526.05	2.180
526.25	2.184
526.45	2.182
526.65	2.200
526.85	2.209
527.05	2.225
527.24	2.233
527.44	2.223
527.64	2.216
527.84	2.209
528.04	2.201
528.24	2.185
528.43	2.181
528.63	2.185
528.83	2.182
529.03	2.181
529.23	2.177
529.43	2.175
529.62	2.179
529.82	2.183
530.02	2.186
530.22	2.196
530.42	2.207
530.62	2.218
530.81	2.214
531.01	2.218
531.21	2.215
531.41	2.217
531.61	2.224
531.80	2.230
532.00	2.227
532.20	2.226
532.40	2.229
532.60	2.230
532.79	2.224
532.99	2.225
533.19	2.223
533.39	2.221
533.59	2.225
533.78	2.217
533.98	2.219
534.18	2.233
534.38	2.236
534.58	2.242
534.77	2.246
534.97	2.257
535.17	2.264
535.37	2.274
535.57	2.286
535.76	2.277
535.96	2.271
536.16	2.262
536.36	2.253
536.56	2.253
536.75	2.245
536.95	2.251
537.15	2.246
537.35	2.247
537.54	2.246
537.74	2.242
537.94	2.246
538.14	2.262
538.34	2.271
538.53	2.265
538.73	2.263
538.93	2.264
539.13	2.264
539.32	2.273
539.52	2.270
539.72	2.266
539.92	2.273
540.11	2.266
540.31	2.247
540.51	2.243
540.71	2.237
540.90	2.224
541.10	2.223
541.30	2.218
541.50	2.223
541.69	2.224
541.89	2.221
542.09	2.213
542.29	2.218
542.48	2.225
542.68	2.228
542.88	2.240
543.08	2.256
543.27	2.267
543.47	2.267
543.67	2.265
543.87	2.267
544.06	2.265
544.26	2.273
544.46	2.279
544.65	2.288
544.85	2.295
545.05	2.297
545.25	2.300
545.44	2.293
545.64	2.308
545.84	2.304
546.04	2.300
546.23	2.300
546.43	2.285
546.63	2.278
546.82	2.262
547.02	2.251
547.22	2.255
547.42	2.248
547.61	2.248
547.81	2.247
548.01	2.243
548.20	2.242
548.40	2.240
548.60	2.252
548.79	2.252
548.99	2.277
549.19	2.280
549.39	2.267
549.58	2.273
549.78	2.266
549.98	2.266
550.17	2.274
550.37	2.279
550.57	2.288
550.76	2.282
550.96	2.291
551.16	2.292
551.35	2.290
551.55	2.295
551.75	2.300
551.94	2.299
552.14	2.293
552.34	2.283
552.53	2.278
552.73	2.273
552.93	2.290
553.13	2.287
553.32	2.280
553.52	2.293
553.72	2.290
553.91	2.284
554.11	2.296
554.31	2.296
554.50	2.301
554.70	2.297
554.89	2.307
555.09	2.302
555.29	2.289
555.48	2.298
555.68	2.291
555.88	2.295
556.07	2.287
556.27	2.288
556.47	2.281
556.66	2.286
556.86	2.295
557.06	2.299
557.25	2.292
557.45	2.300
557.65	2.296
557.84	2.294
558.04	2.284
558.23	2.291
558.43	2.287
558.63	2.281
558.82	2.279
559.02	2.278
559.22	2.277
559.41	2.286
559.61	2.289
559.81	2.281
560.00	2.281
560.20	2.295
560.39	2.304
560.59	2.308
560.79	2.308
560.98	2.318
561.18	2.318
561.37	2.325
561.57	2.334
561.77	2.346
561.96	2.348
562.16	2.361
562.36	2.363
562.55	2.360
562.75	2.352
562.94	2.374
563.14	2.356
563.34	2.354
563.53	2.354
563.73	2.351
563.92	2.353
564.12	2.348
564.32	2.340
564.51	2.345
564.71	2.346
564.90	2.350
565.10	2.346
565.29	2.364
565.49	2.371
565.69	2.369
565.88	2.364
566.08	2.351
566.27	2.352
566.47	2.359
566.67	2.374
566.86	2.385
567.06	2.388
567.25	2.395
567.45	2.393
567.64	2.393
567.84	2.391
568.04	2.400
568.23	2.411
568.43	2.416
568.62	2.407
568.82	2.388
569.01	2.380
569.21	2.371
569.41	2.361
569.60	2.349
569.80	2.362
569.99	2.361
570.19	2.364
570.38	2.363
570.58	2.369
570.77	2.371
570.97	2.374
571.17	2.382
571.36	2.395
571.56	2.404
571.75	2.421
571.95	2.417
572.14	2.423
572.34	2.417
572.53	2.422
572.73	2.428
572.92	2.434
573.12	2.440
573.31	2.444
573.51	2.454
573.70	2.445
573.90	2.445
574.10	2.439
574.29	2.443
574.49	2.437
574.68	2.436
574.88	2.425
575.07	2.431
575.27	2.430
575.46	2.417
575.66	2.417
575.85	2.423
576.05	2.420
576.24	2.419
576.44	2.398
576.63	2.407
576.83	2.407
577.02	2.429
577.22	2.425
577.41	2.433
577.61	2.429
577.80	2.429
578.00	2.432
578.19	2.429
578.39	2.438
578.58	2.451
578.78	2.461
578.97	2.470
579.17	2.465
579.36	2.465
579.56	2.458
579.75	2.463
579.95	2.461
580.14	2.450
580.34	2.465
580.53	2.469
580.73	2.475
580.92	2.465
581.12	2.450
581.31	2.444
581.51	2.433
581.70	2.441
581.89	2.441
582.09	2.430
582.28	2.433
582.48	2.422
582.67	2.428
582.87	2.435
583.06	2.420
583.26	2.426
583.45	2.428
583.65	2.437
583.84	2.436
584.04	2.437
584.23	2.451
584.43	2.454
584.62	2.452
584.81	2.454
585.01	2.448
585.20	2.464
585.40	2.469
585.59	2.458
585.79	2.460
585.98	2.460
586.18	2.456
586.37	2.450
586.56	2.439
586.76	2.428
586.95	2.419
587.15	2.430
587.34	2.437
587.54	2.435
587.73	2.456
587.92	2.451
588.12	2.452
588.31	2.478
588.51	2.471
588.70	2.489
588.90	2.509
589.09	2.512
589.28	2.515
589.48	2.508
589.67	2.511
589.87	2.510
590.06	2.518
590.25	2.517
590.45	2.510
590.64	2.521
590.84	2.520
591.03	2.507
591.23	2.513
591.42	2.508
591.61	2.510
591.81	2.515
592.00	2.496
592.20	2.493
592.39	2.490
592.58	2.496
592.78	2.499
592.97	2.518
593.17	2.530
593.36	2.515
593.55	2.520
593.75	2.535
593.94	2.529
594.13	2.537
594.33	2.539
594.52	2.551
594.72	2.542
594.91	2.546
595.10	2.529
595.30	2.510
595.49	2.517
595.68	2.526
595.88	2.528
596.07	2.522
596.27	2.524
596.46	2.521
596.65	2.523
596.85	2.518
597.04	2.529
597.23	2.546
597.43	2.568
597.62	2.580
597.81	2.565
598.01	2.579
598.20	2.590
598.40	2.611
598.59	2.610
598.78	2.627
598.98	2.651
599.17	2.651
599.36	2.618
599.56	2.628
599.75	2.624
599.94	2.639
600.14	2.615
600.33	2.647
600.52	2.636
600.72	2.669
600.91	2.647
601.10	2.628
601.30	2.618
601.49	2.646
601.68	2.638
601.88	2.639
602.07	2.634
602.26	2.635
602.46	2.608
602.65	2.618
602.84	2.628
603.04	2.627
603.23	2.637
603.42	2.649
603.62	2.660
603.81	2.661
604.00	2.672
604.20	2.665
604.39	2.667
604.58	2.669
604.77	2.653
604.97	2.638
605.16	2.648
605.35	2.646
605.55	2.647
605.74	2.640
605.93	2.656
606.13	2.660
606.32	2.668
606.51	2.691
606.70	2.697
606.90	2.710
607.09	2.721
607.28	2.726
607.48	2.736
607.67	2.724
607.86	2.704
608.05	2.686
608.25	2.675
608.44	2.680
608.63	2.672
608.83	2.684
609.02	2.695
609.21	2.693
609.40	2.699
609.60	2.699
609.79	2.713
609.98	2.731
610.17	2.729
610.37	2.721
610.56	2.723
610.75	2.715
610.95	2.712
611.14	2.706
611.33	2.700
611.52	2.699
611.72	2.693
611.91	2.687
612.10	2.686
612.29	2.700
612.49	2.715
612.68	2.710
612.87	2.708
613.06	2.700
613.26	2.716
613.45	2.730
613.64	2.730
613.83	2.725
614.03	2.721
614.22	2.732
614.41	2.732
614.60	2.733
614.79	2.743
614.99	2.763
615.18	2.761
615.37	2.758
615.56	2.744
615.76	2.758
615.95	2.750
616.14	2.742
616.33	2.739
616.53	2.739
616.72	2.742
616.91	2.734
617.10	2.731
617.29	2.740
617.49	2.729
617.68	2.746
617.87	2.730
618.06	2.743
618.25	2.761
618.45	2.766
618.64	2.756
618.83	2.756
619.02	2.775
619.21	2.768
619.41	2.767
619.60	2.781
619.79	2.767
619.98	2.787
620.17	2.805
620.37	2.803
620.56	2.791
620.75	2.806
620.94	2.802
621.13	2.800
621.33	2.796
621.52	2.807
621.71	2.804
621.90	2.810
622.09	2.771
622.28	2.767
622.48	2.753
622.67	2.757
622.86	2.735
623.05	2.743
623.24	2.737
623.44	2.761
623.63	2.760
623.82	2.765
624.01	2.767
624.20	2.779
624.39	2.774
624.59	2.793
624.78	2.797
624.97	2.827
625.16	2.819
625.35	2.829
625.54	2.817
625.73	2.792
625.93	2.776
626.12	2.790
626.31	2.805
626.50	2.803
626.69	2.798
626.88	2.805
627.07	2.801
627.27	2.805
627.46	2.805
627.65	2.808
627.84	2.822
628.03	2.834
628.22	2.821
628.41	2.823
628.61	2.838
628.80	2.837
628.99	2.826
629.18	2.821
629.37	2.840
629.56	2.847
629.75	2.841
629.94	2.860
630.14	2.858
630.33	2.865
630.52	2.859
630.71	2.861
630.90	2.893
631.09	2.906
631.28	2.933
631.47	2.915
631.66	2.912
631.86	2.918
632.05	2.915
632.24	2.905
632.43	2.892
632.62	2.890
632.81	2.877
633.00	2.868
633.19	2.875
633.38	2.863
633.57	2.859
633.77	2.866
633.96	2.880
634.15	2.890
634.34	2.916
634.53	2.932
634.72	2.936
634.91	2.935
635.10	2.926
635.29	2.915
635.48	2.929
635.67	2.949
635.86	2.947
636.05	2.941
636.25	2.930
636.44	2.938
636.63	2.946
636.82	2.963
637.01	2.977
637.20	2.983
637.39	3.001
637.58	2.989
637.77	2.987
637.96	3.018
638.15	3.020
638.34	3.043
638.53	3.038
638.72	3.019
638.91	3.039
639.10	3.070
639.30	3.073
639.49	3.067
639.68	3.068
639.87	3.067
640.06	3.022
640.25	3.053
640.44	3.026
640.63	3.015
640.82	3.035
641.01	3.043
641.20	3.012
641.39	2.992
641.58	2.993
641.77	3.004
641.96	3.014
642.15	3.044
642.34	3.035
642.53	3.055
642.72	3.049
642.91	3.045
643.10	3.003
643.29	3.008
643.48	3.042
643.67	3.052
643.86	3.068
644.05	3.079
644.24	3.067
644.43	3.077
644.62	3.078
644.81	3.077
645.00	3.072
645.19	3.089
645.38	3.098
645.57	3.087
645.76	3.100
645.95	3.093
646.14	3.082
646.33	3.099
646.52	3.063
646.71	3.094
646.90	3.128
647.09	3.158
647.28	3.157
647.47	3.154
647.66	3.172
647.85	3.166
648.04	3.145
648.23	3.156
648.42	3.153
648.61	3.160
648.80	3.119
648.99	3.100
649.18	3.091
649.37	3.112
649.56	3.111
649.75	3.087
649.94	3.089
650.13	3.106
650.32	3.110
650.51	3.098
650.70	3.113
650.89	3.123
651.08	3.131
651.27	3.138
651.46	3.118
651.65	3.104
651.83	3.130
652.02	3.131
652.21	3.121
652.40	3.110
652.59	3.132
652.78	3.125
652.97	3.131
653.16	3.138
653.35	3.126
653.54	3.139
653.73	3.187
653.92	3.188
654.11	3.192
654.30	3.225
654.49	3.260
654.68	3.248
654.86	3.262
655.05	3.247
655.24	3.243
655.43	3.216
655.62	3.213
655.81	3.178
656.00	3.174
656.19	3.205
656.38	3.198
656.57	3.173
656.76	3.177
656.95	3.182
657.13	3.175
657.32	3.191
657.51	3.223
657.70	3.250
657.89	3.265
658.08	3.258
658.27	3.232
658.46	3.203
658.65	3.222
658.84	3.227
659.02	3.239
659.21	3.269
659.40	3.273
659.59	3.303
659.78	3.294
659.97	3.296
660.16	3.313
660.35	3.310
660.54	3.323
660.72	3.295
660.91	3.289
661.10	3.270
661.29	3.271
661.48	3.263
661.67	3.253
661.86	3.261
662.05	3.261
662.23	3.246
662.42	3.247
662.61	3.255
662.80	3.289
662.99	3.318
663.18	3.335
663.37	3.322
663.56	3.318
663.74	3.290
663.93	3.288
664.12	3.298
664.31	3.311
664.50	3.332
664.69	3.358
664.87	3.364
665.06	3.354
665.25	3.355
665.44	3.340
665.63	3.359
665.82	3.362
666.01	3.352
666.19	3.350
666.38	3.374
666.57	3.368
666.76	3.358
666.95	3.346
667.14	3.355
667.32	3.375
667.51	3.404
667.70	3.390
667.89	3.397
668.08	3.408
668.26	3.416
668.45	3.397
668.64	3.387
668.83	3.412
669.02	3.459
669.21	3.442
669.39	3.441
669.58	3.450
669.77	3.440
669.96	3.468
670.15	3.483
670.33	3.467
670.52	3.475
670.71	3.499
670.90	3.482
671.09	3.422
671.27	3.458
671.46	3.436
671.65	3.453
671.84	3.481
672.03	3.497
672.21	3.506
672.40	3.542
672.59	3.524
672.78	3.537
672.96	3.532
673.15	3.561
673.34	3.538
673.53	3.554
673.72	3.532
673.90	3.547
674.09	3.561
674.28	3.541
674.47	3.529
674.65	3.561
674.84	3.549
675.03	3.577
675.22	3.593
675.41	3.613
675.59	3.602
675.78	3.611
675.97	3.622
676.16	3.589
676.34	3.602
676.53	3.588
676.72	3.576
676.91	3.586
677.09	3.582
677.28	3.567
677.47	3.587
677.66	3.605
677.84	3.592
678.03	3.580
678.22	3.609
678.41	3.586
678.59	3.605
678.78	3.637
678.97	3.653
679.15	3.654
679.34	3.676
679.53	3.670
679.72	3.679
679.90	3.715
680.09	3.717
680.28	3.719
680.47	3.742
680.65	3.735
680.84	3.722
681.03	3.724
681.21	3.702
681.40	3.675
681.59	3.675
681.78	3.680
681.96	3.691
682.15	3.683
682.34	3.655
682.52	3.639
682.71	3.646
682.90	3.645
683.08	3.660
683.27	3.678
683.46	3.702
683.65	3.710
683.83	3.693
684.02	3.653
684.21	3.671
684.39	3.695
684.58	3.724
684.77	3.751
684.95	3.739
685.14	3.709
685.33	3.725
685.51	3.745
685.70	3.744
685.89	3.759
686.07	3.796
686.26	3.784
686.45	3.783
686.63	3.760
686.82	3.753
687.01	3.761
687.20	3.790
687.38	3.788
687.57	3.772
687.75	3.780
687.94	3.814
688.13	3.809
688.31	3.815
688.50	3.837
688.69	3.838
688.87	3.835
689.06	3.858
689.25	3.862
689.43	3.843
689.62	3.839
689.81	3.860
689.99	3.837
690.18	3.840
690.37	3.819
690.55	3.798
690.74	3.823
690.93	3.857
691.11	3.839
691.30	3.838
691.48	3.872
691.67	3.894
691.86	3.897
692.04	3.914
692.23	3.909
692.42	3.965
692.60	3.982
692.79	3.968
692.97	3.952
693.16	4.007
693.35	4.002
693.53	4.009
693.72	3.988
693.90	3.969
694.09	3.935
694.28	3.962
694.46	3.959
694.65	3.966
694.83	4.025
695.02	4.027
695.21	4.027
695.39	4.043
695.58	4.068
695.76	4.091
695.95	4.087
696.14	4.136
696.32	4.113
696.51	4.123
696.69	4.141
696.88	4.175
697.07	4.177
697.25	4.159
697.44	4.153
697.62	4.105
697.81	4.138
697.99	4.124
698.18	4.098
698.37	4.104
698.55	4.105
698.74	4.096
698.92	4.066
699.11	4.061
699.29	4.068
699.48	4.079
699.67	4.110
699.85	4.091
700.04	4.103
700.22	4.107
700.41	4.132
700.59	4.160
700.78	4.158
700.96	4.140
701.15	4.167
701.34	4.154
701.52	4.147
701.71	4.154
701.89	4.183
702.08	4.226
702.26	4.256
702.45	4.270
702.63	4.219
702.82	4.227
703.00	4.273
703.19	4.246
703.38	4.285
703.56	4.280
703.75	4.296
703.93	4.290
704.12	4.302
704.30	4.277
704.49	4.281
704.67	4.325
704.86	4.334
705.04	4.322
705.23	4.353
705.41	4.326
705.60	4.348
705.78	4.317
705.97	4.315
706.15	4.267
706.34	4.318
706.52	4.327
706.71	4.333
706.89	4.324
707.08	4.313
707.26	4.303
707.45	4.305
707.63	4.286
707.82	4.297
708.00	4.312
708.19	4.330
708.37	4.330
708.56	4.331
708.74	4.279
708.93	4.317
709.11	4.336
709.30	4.354
709.48	4.384
709.67	4.403
709.85	4.420
710.04	4.408
710.22	4.440
710.41	4.422
710.59	4.392
710.77	4.431
710.96	4.423
711.14	4.400
711.33	4.405
711.51	4.423
711.70	4.439
711.88	4.448
712.07	4.451
712.25	4.412
712.44	4.425
712.62	4.457
712.80	4.470
712.99	4.467
713.17	4.464
713.36	4.486
713.54	4.479
713.73	4.474
713.91	4.481
714.10	4.469
714.28	4.518
714.46	4.547
714.65	4.559
714.83	4.587
715.02	4.584
715.20	4.641
715.39	4.623
715.57	4.621
715.75	4.624
715.94	4.594
716.12	4.620
716.31	4.601
716.49	4.602
716.68	4.548
716.86	4.534
717.04	4.557
717.23	4.602
717.41	4.633
717.60	4.629
717.78	4.641
717.96	4.634
718.15	4.636
718.33	4.647
718.52	4.642
718.70	4.687
718.88	4.679
719.07	4.686
719.25	4.625
719.44	4.619
719.62	4.639
719.80	4.620
719.99	4.661
720.17	4.640
720.36	4.648
720.54	4.631
720.72	4.683
720.91	4.685
721.09	4.650
721.27	4.659
721.46	4.656
721.64	4.613
721.83	4.619
722.01	4.626
722.19	4.666
722.38	4.672
722.56	4.694
722.74	4.650
722.93	4.663
723.11	4.681
723.30	4.667
723.48	4.665
723.66	4.675
723.85	4.734
724.03	4.740
724.21	4.764
724.40	4.757
724.58	4.773
724.76	4.761
724.95	4.742
725.13	4.810
725.31	4.861
725.50	4.891
725.68	4.917
725.86	4.896
726.05	4.900
726.23	4.880
726.41	4.933
726.60	4.909
726.78	4.905
726.96	4.972
727.15	4.921
727.33	4.915
727.51	4.894
727.70	4.876
727.88	4.896
728.06	4.900
728.25	4.869
728.43	4.838
728.61	4.892
728.80	4.908
728.98	4.879
729.16	4.892
729.34	4.898
729.53	4.913
729.71	4.971
729.89	4.949
730.08	4.931
730.26	4.984
730.44	5.016
730.63	5.015
730.81	5.013
730.99	5.042
731.17	5.084
731.36	5.064
731.54	5.053
731.72	5.060
731.91	5.058
732.09	5.084
732.27	5.091
732.45	5.083
732.64	5.068
732.82	5.093
733.00	5.080
733.19	5.064
733.37	5.089
733.55	5.112
733.73	5.085
733.92	5.115
734.10	5.154
734.28	5.128
734.46	5.132
734.65	5.153
734.83	5.168
735.01	5.129
735.19	5.085
735.38	5.077
735.56	5.049
735.74	5.086
735.92	5.041
736.11	5.039
736.29	5.098
736.47	5.114
736.65	5.092
736.84	5.113
737.02	5.177
737.20	5.280
737.38	5.298
737.57	5.290
737.75	5.311
737.93	5.348
738.11	5.314
738.30	5.311
738.48	5.288
738.66	5.295
738.84	5.323
739.02	5.295
739.21	5.236
739.39	5.210
739.57	5.263
739.75	5.180
739.93	5.248
740.12	5.292
740.30	5.289
740.48	5.273
740.66	5.258
740.85	5.222
741.03	5.227
741.21	5.234
741.39	5.278
741.57	5.321
741.76	5.377
741.94	5.328
742.12	5.343
742.30	5.345
742.48	5.388
742.66	5.417
742.85	5.408
743.03	5.465
743.21	5.485
743.39	5.484
743.57	5.496
743.76	5.512
743.94	5.488
744.12	5.434
744.30	5.441
744.48	5.480
744.66	5.509
744.85	5.516
745.03	5.530
745.21	5.534
745.39	5.562
745.57	5.587
745.75	5.602
745.94	5.667
746.12	5.682
746.30	5.639
746.48	5.626
746.66	5.661
746.84	5.599
747.02	5.624
747.21	5.638
747.39	5.602
747.57	5.526
747.75	5.526
747.93	5.529
748.11	5.572
748.29	5.655
748.48	5.600
748.66	5.559
748.84	5.652
749.02	5.646
749.20	5.664
749.38	5.653
749.56	5.680
749.75	5.700
749.93	5.656
750.11	5.667
750.29	5.605
750.47	5.690
750.65	5.665
750.83	5.641
751.01	5.601
751.19	5.628
751.38	5.680
751.56	5.631
751.74	5.594
751.92	5.628
752.10	5.623
752.28	5.678
752.46	5.687
752.64	5.741
752.82	5.808
753.00	5.892
753.19	5.879
753.37	5.861
753.55	5.931
753.73	5.935
753.91	5.975
754.09	5.910
754.27	5.886
754.45	5.873
754.63	5.912
754.81	5.855
754.99	5.773
755.17	5.467
755.36	5.526
755.54	5.553
755.72	5.612
755.90	5.589
756.08	5.620
756.26	5.694
756.44	5.650
756.62	5.639
756.80	5.710
756.98	5.683
757.16	5.984
757.34	5.985
757.52	5.997
757.70	5.982
757.88	6.009
758.06	6.028
758.24	5.963
758.42	5.982
758.61	5.986
758.79	5.938
758.97	6.006
759.15	5.980
759.33	5.954
759.51	5.941
759.69	5.986
759.87	5.985
760.05	6.007
760.23	6.024
760.41	6.074
760.59	6.040
760.77	6.093
760.95	6.071
761.13	6.156
761.31	6.235
761.49	6.242
761.67	6.227
761.85	6.256
762.03	6.249
762.21	6.304
762.39	6.226
762.57	6.259
762.75	6.236
762.93	6.275
763.11	6.220
763.29	6.175
763.47	6.138
763.65	6.148
763.83	6.119
764.01	6.133
764.19	6.117
764.37	6.176
764.55	6.169
764.73	6.183
764.91	6.163
765.09	6.197
765.27	6.178
765.45	6.213
765.63	6.211
765.81	6.240
765.99	6.247
766.17	6.276
766.35	6.270
766.53	6.281
766.71	6.313
766.89	6.348
767.07	6.353
767.25	6.411
767.43	6.396
767.61	6.454
767.78	6.442
767.96	6.477
768.14	6.438
768.32	6.509
768.50	6.565
768.68	6.500
768.86	6.488
769.04	6.505
769.22	6.507
769.40	6.562
769.58	6.529
769.76	6.556
769.94	6.583
770.12	6.631
770.30	6.538
770.48	6.468
770.66	6.543
770.84	6.553
771.01	6.563
771.19	6.539
771.37	6.597
771.55	6.607
771.73	6.573
771.91	6.563
772.09	6.562
772.27	6.619
772.45	6.680
772.63	6.633
772.81	6.654
772.99	6.556
773.16	6.553
773.34	6.545
773.52	6.508
773.70	6.526
773.88	6.601
774.06	6.621
774.24	6.590
774.42	6.643
774.60	6.702
774.78	6.678
774.95	6.749
775.13	6.815
775.31	6.744
775.49	6.779
775.67	6.828
775.85	6.697
776.03	6.697
776.21	6.703
776.38	6.661
776.56	6.695
776.74	6.780
776.92	6.843
777.10	6.825
777.28	6.909
777.46	6.911
777.64	6.968
777.81	7.049
777.99	7.037
778.17	7.025
778.35	7.075
778.53	7.047
778.71	7.060
778.89	7.058
779.06	7.126
779.24	7.021
779.42	6.977
779.60	6.901
779.78	6.883
779.96	6.867
780.13	6.899
780.31	6.908
780.49	6.875
780.67	6.790
780.85	6.791
781.03	6.739
781.20	6.755
781.38	6.865
781.56	6.958
781.74	6.969
781.92	6.988
782.10	6.994
782.27	6.869
782.45	6.872
782.63	6.892
782.81	6.924
782.99	6.926
783.17	7.033
783.34	7.037
783.52	6.961
783.70	6.947
783.88	6.944
784.06	6.930
784.23	6.992
784.41	7.020
784.59	7.119
784.77	7.127
784.95	7.267
785.12	7.123
785.30	7.062
785.48	7.167
785.66	7.203
785.83	7.243
786.01	7.379
786.19	7.506
786.37	7.493
786.55	7.437
786.72	7.445
786.90	7.405
787.08	7.587
787.26	7.737
787.43	7.663
787.61	7.584
787.79	7.565
787.97	7.555
788.15	7.538
788.32	7.585
788.50	7.596
788.68	7.522
788.86	7.534
789.03	7.479
789.21	7.362
789.39	7.371
789.57	7.418
789.74	7.496
789.92	7.439
790.10	7.428
790.28	7.491
790.45	7.561
790.63	7.694
790.81	7.611
790.99	7.625
791.16	7.685
791.34	7.723
791.52	7.741
791.69	7.817
791.87	7.824
792.05	7.733
792.23	7.676
792.40	7.610
792.58	7.604
792.76	7.649
792.94	7.611
793.11	7.694
793.29	7.655
793.47	7.774
793.64	7.692
793.82	7.821
794.00	7.840
794.18	7.716
794.35	7.721
794.53	7.565
794.71	7.517
794.88	7.548
795.06	7.519
795.24	7.563
795.41	7.486
795.59	7.500
795.77	7.435
795.94	7.491
796.12	7.621
796.30	7.600
796.48	7.678
796.65	7.723
796.83	7.714
797.01	7.670
797.18	7.626
797.36	7.628
797.54	7.613
797.71	7.580
797.89	7.649
798.07	7.668
798.24	7.769
798.42	7.736
798.60	7.794
798.77	7.873
798.95	7.870
799.13	7.862
799.30	7.818
799.48	7.823
799.66	7.884
799.83	7.919
800.01	7.910
800.18	7.877
800.36	8.083
800.54	8.020
800.71	8.011
800.89	8.062
801.07	8.108
801.24	8.302
801.42	8.444
801.60	8.504
801.77	8.393
801.95	8.335
802.12	8.439
802.30	8.345
802.48	8.497
802.65	8.545
802.83	8.557
803.01	8.595
803.18	8.522
803.36	8.467
803.53	8.442
803.71	8.418
803.89	8.450
804.06	8.468
804.24	8.540
804.41	8.526
804.59	8.525
804.77	8.690
804.94	8.730
805.12	8.671
805.29	8.589
805.47	8.545
805.65	8.690
805.82	8.846
806.00	8.867
806.17	8.752
806.35	8.701
806.53	8.804
806.70	8.648
806.88	8.610
807.05	8.635
807.23	8.650
807.40	8.694
807.58	8.592
807.76	8.594
807.93	8.579
808.11	8.607
808.28	8.600
808.46	8.527
808.63	8.693
808.81	8.821
808.99	8.781
809.16	8.809
809.34	8.831
809.51	8.729
809.69	8.751
809.86	8.654
810.04	8.629
810.21	8.585
810.39	8.583
810.57	8.487
810.74	8.370
810.92	8.438
811.09	8.389
811.27	8.430
811.44	8.699
811.62	8.719
811.79	8.873
811.97	8.869
812.14	8.898
812.32	8.998
812.49	8.992
812.67	9.133
812.84	9.108
813.02	9.241
813.19	9.141
813.37	8.947
813.55	8.759
813.72	8.722
813.90	9.019
814.07	9.044
814.25	8.926
814.42	9.018
814.60	8.836
814.77	8.886
814.95	8.803
815.12	8.877
815.30	8.977
815.47	9.025
815.65	8.944
815.82	8.797
816.00	8.957
816.17	8.932
816.35	8.728
816.52	9.004
816.69	9.085
816.87	9.198
817.04	9.166
817.22	9.190
817.39	9.250
817.57	9.272
817.74	9.262
817.92	9.254
818.09	9.265
818.27	9.305
818.44	9.193
818.62	9.068
818.79	9.011
818.97	9.058
819.14	9.102
819.32	9.130
819.49	9.124
819.66	9.112
819.84	9.101
820.01	9.170
820.19	9.198
820.36	9.105
820.54	9.197
820.71	9.200
820.89	9.206
821.06	9.233
821.23	9.278
821.41	9.239
821.58	9.184
821.76	9.110
821.93	9.028
822.11	8.969
822.28	8.964
822.45	8.902
822.63	8.890
822.80	8.885
822.98	8.881
823.15	8.870
823.33	8.885
823.50	8.915
823.67	8.937
823.85	8.970
824.02	9.024
824.20	9.084
824.37	9.172
824.54	9.233
824.72	9.310
824.89	9.343
825.07	9.375
825.24	9.432
825.41	9.467
825.59	9.498
825.76	9.553
825.94	9.634
826.11	9.658
826.28	9.715
826.46	9.752
826.63	9.735
826.80	9.756
826.98	9.735
827.15	9.714
827.33	9.677
827.50	9.656
827.67	9.637
827.85	9.607
828.02	9.594
828.19	9.602
828.37	9.605
828.54	9.610
828.72	9.665
828.89	9.707
829.06	9.697
829.24	9.769
829.41	9.855
829.58	9.936
829.76	9.969
829.93	10.013
830.10	10.009
830.28	10.044
830.45	10.097
830.62	10.048
830.80	10.167
830.97	10.175
831.14	10.093
831.32	10.149
831.49	10.145
831.66	10.162
831.84	10.202
832.01	10.208
832.18	10.238
832.36	10.189
832.53	10.229
832.70	10.247
832.88	10.380
833.05	10.395
833.22	10.368
833.40	10.346
833.57	10.316
833.74	10.238
833.91	10.210
834.09	10.198
834.26	10.203
834.43	10.173
834.61	10.132
834.78	10.041
834.95	10.035
835.13	9.962
835.30	9.922
835.47	9.941
835.64	9.961
835.82	9.995
835.99	9.972
836.16	10.051
836.34	10.143
836.51	10.175
836.68	10.318
836.85	10.350
837.03	10.520
837.20	10.659
837.37	10.622
837.54	10.709
837.72	10.712
837.89	10.744
838.06	10.642
838.24	10.545
838.41	10.636
838.58	10.457
838.75	10.407
838.93	10.385
839.10	10.439
839.27	10.514
839.44	10.548
839.62	10.715
839.79	10.770
839.96	10.823
840.13	10.940
840.31	10.740
840.48	10.832
840.65	10.922
840.82	10.969
840.99	11.012
841.17	11.002
841.34	11.096
841.51	11.155
841.68	11.168
841.86	11.109
842.03	11.086
842.20	11.313
842.37	11.417
842.55	11.483
842.72	11.382
842.89	11.292
843.06	11.473
843.23	11.196
843.41	10.915
843.58	10.818
843.75	10.985
843.92	11.102
844.09	10.933
844.27	10.775
844.44	10.698
844.61	10.675
844.78	10.656
844.95	10.413
845.13	10.821
845.30	11.124
845.47	11.338
845.64	11.571
845.81	11.309
845.98	11.230
846.16	11.213
846.33	11.122
846.50	11.356
846.67	11.423
846.84	11.675
847.02	11.436
847.19	11.144
847.36	10.823
847.53	10.245
847.70	10.024
847.87	10.055
848.04	10.069
848.22	10.258
848.39	10.129
848.56	10.069
848.73	9.768
848.90	9.707
849.07	9.734
849.25	9.808
849.42	10.144
849.59	10.312
849.76	10.664
849.93	11.209
850.10	10.848
850.27	10.727
850.45	10.731
850.62	10.958
850.79	11.047
850.96	11.083
851.13	11.425
851.30	11.091
851.47	11.094
851.64	10.834
851.82	10.386
851.99	10.595
852.16	11.000
852.33	10.742
852.50	10.801
852.67	10.867
852.84	11.041
853.01	10.792
853.18	11.090
853.35	11.250
853.53	11.380
853.70	11.473
853.87	11.665
854.04	11.329
854.21	11.656
854.38	11.375
854.55	11.304
854.72	11.195
854.89	11.076
855.06	11.478
855.23	11.459
855.41	11.318
855.58	11.547
855.75	11.421
855.92	11.460
856.09	11.440
856.26	11.751
856.43	11.662
856.60	11.639
856.77	11.498
856.94	11.216
857.11	11.177
857.28	11.537
857.45	11.326
857.62	11.334
857.80	11.031
857.97	10.967
858.14	11.108
858.31	11.237
858.48	11.538
858.65	11.744
858.82	11.993
858.99	11.941
859.16	11.612
859.33	11.841
859.50	11.663
859.67	11.969
859.84	11.920
860.01	11.658
860.18	11.611
860.35	11.355
860.52	11.322
860.69	10.685
860.86	10.718
861.03	10.741
861.20	10.134
861.37	10.619
861.54	11.000
861.71	11.113
861.88	11.339
862.05	11.234
862.22	11.494
862.39	12.033
862.56	12.093
862.73	12.498
862.90	12.683
863.07	13.230
863.24	12.664
863.41	12.149
863.58	12.422
863.75	12.143
863.92	12.231
864.09	12.073
864.26	11.998
864.43	12.332
864.60	12.148
864.77	12.272
864.94	12.479
865.11	13.038
865.28	13.384
865.45	13.304
865.62	13.614
865.79	13.764
865.96	13.656
866.13	13.494
866.30	13.291
866.47	13.206
866.64	13.032
866.81	12.858
866.98	12.768
867.15	12.455
867.32	12.074
867.49	11.745
867.66	11.903
867.82	11.994
867.99	12.143
868.16	12.445
868.33	12.697
868.50	12.724
868.67	12.916
868.84	13.049
869.01	13.647
869.18	13.958
869.35	14.419
869.52	14.655
869.69	15.034
869.86	14.914
870.03	15.097
870.19	14.766
870.36	14.946
870.53	14.261
870.70	14.268
870.87	14.010
871.04	13.966
871.21	13.751
871.38	13.642
871.55	12.978
871.72	13.020
871.89	12.901
872.05	12.719
872.22	12.331
872.39	12.354
872.56	12.214
872.73	12.184
872.90	12.377
873.07	12.425
873.24	12.225
873.41	12.636
873.57	12.575
873.74	12.541
873.91	12.856
874.08	13.257
874.25	13.947
874.42	13.779
874.59	13.911
874.76	13.716
874.92	13.595
875.09	13.757
875.26	13.547
875.43	13.722
875.60	13.331
875.77	13.444
875.94	13.505
876.11	13.284
876.27	13.328
876.44	13.419
876.61	13.674
876.78	13.893
876.95	13.768
877.12	13.908
877.28	13.907
877.45	14.189
877.62	13.995
877.79	13.821
877.96	13.977
878.13	13.962
878.29	14.136
878.46	13.967
878.63	13.886
878.80	13.666
878.97	13.887
879.14	13.893
879.30	14.011
879.47	14.251
879.64	14.268
879.81	14.167
879.98	14.271
880.14	14.147
880.31	14.253
880.48	14.290
880.65	14.409
880.82	14.261
880.98	14.162
881.15	14.053
881.32	13.887
881.49	13.776
881.66	13.654
881.82	13.554
881.99	13.487
882.16	13.419
882.33	13.382
882.50	13.352
882.66	13.340
882.83	13.333
883.00	13.339
883.17	13.383
883.33	13.423
883.50	13.513
883.67	13.630
883.84	13.697
884.01	13.795
884.17	13.851
884.34	13.925
884.51	13.972
884.68	14.022
884.84	14.068
885.01	14.114
885.18	14.185
885.35	14.239
885.51	14.226
885.68	14.283
885.85	14.367
886.02	14.472
886.18	14.521
886.35	14.537
886.52	14.580
886.69	14.468
886.85	14.616
887.02	14.635
887.19	14.628
887.35	14.660
887.52	14.802
887.69	14.895
887.86	15.045
888.02	15.080
888.19	15.302
888.36	16.142
888.53	17.482
888.69	17.048
888.86	15.707
889.03	15.310
>>>>>End Spectral Data<<<<<
