OOIBase32 Version 2.0.6.5 Data File
++++++++++++++++++++++++++++++++++++
Date: 11-17-2016, 11:08:14
User: Valued Ocean Optics Customer
Spectrometer Serial Number: USB4C01507
Spectrometer Channel: Master
Integration Time (msec): 49
Spectra Averaged: 25
Boxcar Smoothing: 5
Correct for Electrical Dark: Enabled
Time Normalized: Disabled
Dual-beam Reference: Disabled
Reference Channel: Master
Temperature: Not acquired
Spectrometer Type: S4000
ADC Type: USB4000
Number of Pixels in File: 3648
Graph Title: 
>>>>>Begin Spectral Data<<<<<
178.53	1598.786
178.74	2069.081
178.96	15.444
179.18	15.307
179.39	732.604
179.61	-119.503
179.82	57.895
180.04	-59.871
180.25	137.820
180.47	-205.473
180.69	158.439
180.90	539.944
181.12	182.392
181.33	219.631
181.55	-4.529
181.76	-22649.676
181.98	102.174
182.20	519.102
182.41	-17.188
182.63	-54.600
182.84	15.239
183.06	-5.076
183.27	-9.120
183.49	-15.136
183.71	-16.231
183.92	-20.014
184.14	-33.647
184.35	-34.559
184.57	-36.448
184.78	-32.066
185.00	-25.420
185.21	-34.164
185.43	-23.684
185.65	-6.781
185.86	-13.619
186.08	-9.617
186.29	-8.220
186.51	5.775
186.72	-1.991
186.94	-1.516
187.15	2.095
187.37	-0.215
187.58	10.065
187.80	2.333
188.02	4.431
188.23	8.431
188.45	15.165
188.66	19.349
188.88	19.844
189.09	24.130
189.31	26.851
189.52	20.640
189.74	14.995
189.95	13.347
190.17	15.815
190.38	10.851
190.60	8.149
190.82	4.043
191.03	6.647
191.25	9.780
191.46	3.880
191.68	7.464
191.89	5.233
192.11	15.365
192.32	18.941
192.54	18.493
192.75	23.063
192.97	23.897
193.18	25.056
193.40	24.143
193.61	22.297
193.83	26.043
194.04	20.970
194.26	27.707
194.48	28.408
194.69	26.463
194.91	20.087
195.12	17.869
195.34	20.466
195.55	20.261
195.77	18.603
195.98	12.613
196.20	8.867
196.41	3.696
196.63	5.811
196.84	1.588
197.06	1.982
197.27	5.794
197.49	3.791
197.70	2.912
197.92	-6.827
198.13	0.946
198.35	3.547
198.56	2.202
198.78	13.347
198.99	8.361
199.21	11.224
199.42	10.240
199.64	13.574
199.85	12.087
200.07	14.894
200.28	21.495
200.50	13.365
200.71	12.784
200.93	15.052
201.14	12.452
201.36	9.820
201.57	6.874
201.79	7.082
202.00	5.475
202.22	5.803
202.43	5.599
202.65	1.445
202.86	5.878
203.08	7.654
203.29	5.832
203.51	-0.864
203.72	1.362
203.94	7.587
204.15	5.865
204.37	7.607
204.58	9.661
204.80	6.904
205.01	11.986
205.22	11.104
205.44	10.474
205.65	9.333
205.87	12.018
206.08	15.236
206.30	9.476
206.51	8.699
206.73	6.443
206.94	5.207
207.16	5.372
207.37	2.302
207.59	1.244
207.80	-0.534
208.02	4.644
208.23	8.030
208.45	2.827
208.66	2.994
208.88	5.548
209.09	6.223
209.30	6.922
209.52	7.771
209.73	9.323
209.95	12.592
210.16	12.537
210.38	10.304
210.59	6.386
210.81	8.252
211.02	9.670
211.24	8.691
211.45	7.250
211.66	8.431
211.88	6.122
212.09	5.328
212.31	3.360
212.52	4.210
212.74	3.430
212.95	4.178
213.17	3.131
213.38	4.308
213.60	5.701
213.81	9.103
214.02	8.145
214.24	8.892
214.45	2.845
214.67	3.000
214.88	2.073
215.10	3.538
215.31	2.758
215.53	2.419
215.74	1.149
215.95	0.207
216.17	-2.682
216.38	-3.990
216.60	-5.016
216.81	-1.043
217.03	-0.773
217.24	0.309
217.45	0.545
217.67	-0.988
217.88	0.633
218.10	1.203
218.31	0.879
218.53	2.822
218.74	2.562
218.95	0.521
219.17	-2.159
219.38	-2.437
219.60	-0.870
219.81	0.058
220.03	1.346
220.24	1.606
220.45	0.373
220.67	0.357
220.88	0.705
221.10	2.105
221.31	4.123
221.53	4.862
221.74	3.302
221.95	2.698
222.17	0.426
222.38	1.284
222.60	1.479
222.81	1.514
223.02	1.793
223.24	1.441
223.45	0.965
223.67	0.227
223.88	0.705
224.09	2.332
224.31	2.776
224.52	4.433
224.74	3.085
224.95	3.226
225.16	3.473
225.38	2.982
225.59	2.891
225.81	2.411
226.02	2.617
226.23	2.257
226.45	1.904
226.66	1.242
226.88	1.215
227.09	1.722
227.30	1.460
227.52	1.690
227.73	1.687
227.95	1.724
228.16	1.878
228.37	1.892
228.59	2.008
228.80	2.088
229.02	2.138
229.23	2.085
229.44	2.089
229.66	2.123
229.87	2.086
230.08	2.163
230.30	2.122
230.51	2.053
230.73	2.115
230.94	2.023
231.15	1.794
231.37	1.762
231.58	1.667
231.80	1.556
232.01	1.647
232.22	1.536
232.44	1.630
232.65	1.667
232.86	1.457
233.08	1.315
233.29	1.226
233.51	1.455
233.72	1.522
233.93	1.552
234.15	1.669
234.36	1.601
234.57	1.795
234.79	1.775
235.00	1.921
235.21	2.541
235.43	2.698
235.64	2.688
235.86	2.560
236.07	2.540
236.28	2.573
236.50	2.483
236.71	2.670
236.92	2.696
237.14	2.649
237.35	2.427
237.56	2.247
237.78	2.178
237.99	2.202
238.20	2.236
238.42	2.438
238.63	2.406
238.84	2.696
239.06	2.454
239.27	2.109
239.48	2.182
239.70	2.167
239.91	1.750
240.13	1.761
240.34	1.896
240.55	1.923
240.77	1.795
240.98	1.660
241.19	1.617
241.41	1.496
241.62	1.551
241.83	1.481
242.05	1.457
242.26	1.545
242.47	1.485
242.69	1.465
242.90	1.470
243.11	1.485
243.33	1.496
243.54	1.432
243.75	1.536
243.97	1.483
244.18	1.525
244.39	1.633
244.61	1.472
244.82	1.628
245.03	1.626
245.24	1.541
245.46	1.636
245.67	1.848
245.88	1.871
246.10	1.873
246.31	1.860
246.52	1.827
246.74	1.774
246.95	1.790
247.16	1.776
247.38	1.754
247.59	1.781
247.80	1.761
248.02	1.746
248.23	1.694
248.44	1.690
248.66	1.661
248.87	1.700
249.08	1.702
249.29	1.791
249.51	1.724
249.72	1.876
249.93	1.932
250.15	2.046
250.36	1.836
250.57	1.971
250.79	2.036
251.00	2.195
251.21	2.146
251.42	2.225
251.64	2.117
251.85	2.256
252.06	2.253
252.28	2.141
252.49	2.077
252.70	2.236
252.91	2.188
253.13	2.132
253.34	2.161
253.55	2.179
253.77	2.143
253.98	2.231
254.19	2.000
254.40	1.733
254.62	1.835
254.83	1.588
255.04	1.411
255.26	1.535
255.47	1.366
255.68	1.394
255.89	1.446
256.11	1.450
256.32	1.284
256.53	1.503
256.75	1.577
256.96	1.579
257.17	1.862
257.38	2.013
257.60	1.985
257.81	2.094
258.02	1.986
258.23	1.825
258.45	1.705
258.66	1.829
258.87	1.672
259.09	1.641
259.30	1.648
259.51	1.558
259.72	1.565
259.94	1.552
260.15	1.496
260.36	1.553
260.57	1.597
260.79	1.627
261.00	1.566
261.21	1.630
261.42	1.696
261.64	1.666
261.85	1.705
262.06	1.614
262.27	1.718
262.49	1.921
262.70	1.746
262.91	1.768
263.12	1.697
263.34	1.784
263.55	1.742
263.76	1.640
263.97	1.725
264.19	1.852
264.40	1.941
264.61	1.770
264.82	1.629
265.04	1.730
265.25	1.546
265.46	1.613
265.67	1.554
265.88	1.495
266.10	1.384
266.31	1.319
266.52	1.225
266.73	1.296
266.95	1.345
267.16	1.412
267.37	1.338
267.58	1.392
267.80	1.443
268.01	1.397
268.22	1.375
268.43	1.502
268.64	1.567
268.86	1.622
269.07	1.527
269.28	1.433
269.49	1.483
269.71	1.539
269.92	1.443
270.13	1.524
270.34	1.532
270.55	1.677
270.77	1.720
270.98	1.655
271.19	1.680
271.40	1.621
271.61	1.641
271.83	1.544
272.04	1.544
272.25	1.666
272.46	1.568
272.68	1.624
272.89	1.604
273.10	1.551
273.31	1.555
273.52	1.568
273.74	1.531
273.95	1.454
274.16	1.443
274.37	1.521
274.58	1.455
274.80	1.473
275.01	1.495
275.22	1.520
275.43	1.621
275.64	1.699
275.86	1.717
276.07	1.820
276.28	2.003
276.49	2.121
276.70	1.949
276.91	1.950
277.13	2.010
277.34	2.040
277.55	2.005
277.76	1.838
277.97	1.765
278.19	1.764
278.40	1.794
278.61	1.741
278.82	1.737
279.03	1.810
279.24	1.733
279.46	1.692
279.67	1.606
279.88	1.511
280.09	1.628
280.30	1.652
280.52	1.525
280.73	1.521
280.94	1.525
281.15	1.446
281.36	1.507
281.57	1.664
281.79	1.684
282.00	1.715
282.21	1.733
282.42	1.726
282.63	1.738
282.84	1.770
283.06	1.716
283.27	1.754
283.48	1.765
283.69	1.597
283.90	1.558
284.11	1.525
284.32	1.510
284.54	1.527
284.75	1.480
284.96	1.414
285.17	1.498
285.38	1.557
285.59	1.522
285.81	1.568
286.02	1.713
286.23	1.701
286.44	1.780
286.65	1.774
286.86	1.784
287.07	1.813
287.29	1.801
287.50	1.759
287.71	1.683
287.92	1.787
288.13	1.700
288.34	1.617
288.55	1.623
288.77	1.569
288.98	1.517
289.19	1.566
289.40	1.608
289.61	1.736
289.82	1.706
290.03	1.636
290.24	1.553
290.46	1.608
290.67	1.668
290.88	1.693
291.09	1.663
291.30	1.711
291.51	1.686
291.72	1.677
291.93	1.581
292.15	1.638
292.36	1.843
292.57	1.808
292.78	1.740
292.99	1.636
293.20	1.680
293.41	1.573
293.62	1.565
293.84	1.535
294.05	1.482
294.26	1.455
294.47	1.433
294.68	1.339
294.89	1.391
295.10	1.426
295.31	1.489
295.52	1.445
295.73	1.493
295.95	1.504
296.16	1.502
296.37	1.604
296.58	1.633
296.79	1.608
297.00	1.636
297.21	1.559
297.42	1.532
297.63	1.485
297.84	1.423
298.06	1.438
298.27	1.455
298.48	1.497
298.69	1.377
298.90	1.384
299.11	1.428
299.32	1.420
299.53	1.544
299.74	1.536
299.95	1.660
300.16	1.655
300.38	1.696
300.59	1.637
300.80	1.593
301.01	1.601
301.22	1.547
301.43	1.511
301.64	1.489
301.85	1.438
302.06	1.473
302.27	1.386
302.48	1.480
302.69	1.455
302.91	1.420
303.12	1.476
303.33	1.518
303.54	1.599
303.75	1.497
303.96	1.564
304.17	1.537
304.38	1.482
304.59	1.533
304.80	1.511
305.01	1.432
305.22	1.454
305.43	1.350
305.64	1.314
305.85	1.194
306.06	1.340
306.28	1.277
306.49	1.309
306.70	1.308
306.91	1.202
307.12	1.219
307.33	1.163
307.54	1.207
307.75	1.235
307.96	1.189
308.17	1.252
308.38	1.215
308.59	1.229
308.80	1.202
309.01	1.203
309.22	1.282
309.43	1.249
309.64	1.380
309.85	1.374
310.06	1.341
310.27	1.443
310.48	1.438
310.70	1.424
310.91	1.458
311.12	1.433
311.33	1.438
311.54	1.342
311.75	1.355
311.96	1.348
312.17	1.305
312.38	1.334
312.59	1.270
312.80	1.245
313.01	1.190
313.22	1.181
313.43	1.161
313.64	1.088
313.85	1.136
314.06	1.150
314.27	1.126
314.48	1.194
314.69	1.222
314.90	1.253
315.11	1.387
315.32	1.421
315.53	1.349
315.74	1.365
315.95	1.433
316.16	1.421
316.37	1.312
316.58	1.223
316.79	1.191
317.00	1.201
317.21	1.147
317.42	0.977
317.63	0.991
317.84	0.859
318.05	0.799
318.26	0.794
318.47	0.793
318.68	0.923
318.89	0.990
319.10	1.010
319.31	0.972
319.52	0.974
319.73	1.012
319.94	0.999
320.15	1.119
320.36	1.266
320.57	1.250
320.78	1.221
320.99	1.055
321.20	1.056
321.41	0.992
321.62	1.004
321.83	1.066
322.04	1.029
322.25	1.041
322.46	1.026
322.67	0.974
322.88	0.985
323.09	1.015
323.30	1.049
323.51	0.986
323.72	1.004
323.93	0.970
324.14	0.956
324.35	0.964
324.56	0.954
324.77	0.955
324.98	0.884
325.19	0.804
325.40	0.781
325.61	0.835
325.82	0.883
326.03	0.901
326.24	0.882
326.45	0.814
326.65	0.872
326.86	0.869
327.07	0.906
327.28	0.986
327.49	1.078
327.70	1.078
327.91	1.060
328.12	1.109
328.33	1.080
328.54	1.128
328.75	1.211
328.96	1.229
329.17	1.211
329.38	1.107
329.59	1.079
329.80	1.110
330.01	1.152
330.22	1.105
330.43	1.053
330.64	1.101
330.85	1.138
331.05	1.043
331.26	1.010
331.47	0.956
331.68	1.012
331.89	1.010
332.10	0.947
332.31	0.945
332.52	1.002
332.73	0.971
332.94	0.958
333.15	0.911
333.36	0.996
333.57	0.928
333.78	0.946
333.99	0.939
334.19	0.955
334.40	0.972
334.61	1.007
334.82	1.042
335.03	1.049
335.24	1.001
335.45	1.047
335.66	1.006
335.87	1.036
336.08	1.063
336.29	1.143
336.50	1.106
336.71	1.143
336.91	1.100
337.12	0.989
337.33	1.007
337.54	1.092
337.75	1.071
337.96	1.055
338.17	1.071
338.38	1.102
338.59	1.105
338.80	1.062
339.01	1.023
339.21	1.012
339.42	1.050
339.63	1.038
339.84	1.034
340.05	1.003
340.26	0.941
340.47	0.936
340.68	0.930
340.89	0.835
341.10	0.857
341.30	0.888
341.51	0.871
341.72	0.953
341.93	0.962
342.14	0.870
342.35	0.865
342.56	0.930
342.77	0.986
342.98	0.939
343.18	0.952
343.39	0.967
343.60	0.922
343.81	0.986
344.02	0.965
344.23	0.956
344.44	0.977
344.65	0.946
344.85	0.907
345.06	0.902
345.27	0.975
345.48	0.921
345.69	0.969
345.90	1.027
346.11	1.004
346.32	0.969
346.52	0.952
346.73	0.972
346.94	0.981
347.15	0.997
347.36	0.942
347.57	0.894
347.78	0.942
347.98	0.922
348.19	0.883
348.40	0.873
348.61	0.889
348.82	0.950
349.03	0.943
349.24	0.961
349.44	0.981
349.65	1.011
349.86	1.021
350.07	1.053
350.28	1.050
350.49	1.060
350.70	1.030
350.90	0.991
351.11	0.935
351.32	0.935
351.53	0.954
351.74	0.944
351.95	0.883
352.15	0.919
352.36	0.876
352.57	0.861
352.78	0.903
352.99	0.922
353.20	0.978
353.40	1.013
353.61	0.969
353.82	0.925
354.03	0.991
354.24	1.010
354.45	0.965
354.65	1.007
354.86	1.021
355.07	0.976
355.28	0.981
355.49	0.966
355.70	0.963
355.90	1.013
356.11	1.047
356.32	1.023
356.53	1.033
356.74	1.004
356.94	0.957
357.15	0.962
357.36	0.974
357.57	0.989
357.78	0.944
357.99	0.954
358.19	0.942
358.40	0.950
358.61	0.946
358.82	0.955
359.03	0.995
359.23	1.011
359.44	0.982
359.65	0.959
359.86	0.986
360.07	1.066
360.27	1.056
360.48	1.051
360.69	1.061
360.90	1.004
361.11	1.066
361.31	1.045
361.52	1.084
361.73	1.115
361.94	1.147
362.15	1.095
362.35	1.066
362.56	1.101
362.77	1.095
362.98	1.102
363.18	1.126
363.39	1.057
363.60	1.079
363.81	1.080
364.02	1.075
364.22	1.085
364.43	1.115
364.64	1.103
364.85	1.048
365.05	1.068
365.26	1.049
365.47	1.070
365.68	1.083
365.89	1.079
366.09	1.078
366.30	1.081
366.51	1.042
366.72	1.021
366.92	1.066
367.13	1.109
367.34	1.120
367.55	1.123
367.75	1.111
367.96	1.130
368.17	1.139
368.38	1.149
368.58	1.143
368.79	1.154
369.00	1.184
369.21	1.129
369.41	1.120
369.62	1.070
369.83	1.074
370.04	1.073
370.24	1.063
370.45	1.092
370.66	1.068
370.87	1.027
371.07	1.001
371.28	0.984
371.49	0.989
371.70	0.977
371.90	1.015
372.11	1.004
372.32	1.022
372.53	1.037
372.73	1.038
372.94	1.015
373.15	1.034
373.36	1.062
373.56	1.079
373.77	1.085
373.98	1.125
374.19	1.121
374.39	1.119
374.60	1.141
374.81	1.155
375.01	1.139
375.22	1.124
375.43	1.157
375.64	1.144
375.84	1.145
376.05	1.174
376.26	1.146
376.46	1.119
376.67	1.121
376.88	1.098
377.09	1.055
377.29	1.034
377.50	1.080
377.71	1.092
377.91	1.129
378.12	1.089
378.33	1.103
378.54	1.106
378.74	1.144
378.95	1.118
379.16	1.141
379.36	1.132
379.57	1.143
379.78	1.132
379.99	1.157
380.19	1.115
380.40	1.128
380.61	1.106
380.81	1.095
381.02	1.119
381.23	1.119
381.43	1.082
381.64	1.116
381.85	1.130
382.05	1.113
382.26	1.074
382.47	1.071
382.67	1.073
382.88	1.050
383.09	1.055
383.30	1.018
383.50	1.062
383.71	1.042
383.92	1.021
384.12	1.013
384.33	0.993
384.54	0.977
384.74	1.017
384.95	1.002
385.16	1.013
385.36	1.024
385.57	1.020
385.78	0.999
385.98	1.024
386.19	1.030
386.40	1.022
386.60	1.054
386.81	1.055
387.02	1.040
387.22	1.051
387.43	1.034
387.64	1.045
387.84	1.070
388.05	1.076
388.26	1.070
388.46	1.065
388.67	1.076
388.88	1.087
389.08	1.100
389.29	1.103
389.49	1.096
389.70	1.114
389.91	1.063
390.11	1.014
390.32	1.008
390.53	1.037
390.73	1.057
390.94	1.044
391.15	1.032
391.35	1.015
391.56	1.023
391.77	1.023
391.97	1.027
392.18	1.058
392.38	1.097
392.59	1.114
392.80	1.093
393.00	1.064
393.21	1.081
393.42	1.084
393.62	1.105
393.83	1.101
394.04	1.127
394.24	1.110
394.45	1.118
394.65	1.144
394.86	1.121
395.07	1.144
395.27	1.142
395.48	1.112
395.68	1.125
395.89	1.114
396.10	1.109
396.30	1.059
396.51	1.093
396.72	1.103
396.92	1.058
397.13	1.076
397.33	1.046
397.54	1.077
397.75	1.097
397.95	1.107
398.16	1.083
398.36	1.078
398.57	1.105
398.78	1.066
398.98	1.046
399.19	1.058
399.39	1.079
399.60	1.070
399.81	1.068
400.01	1.065
400.22	1.034
400.42	1.077
400.63	1.079
400.84	1.089
401.04	1.132
401.25	1.106
401.45	1.110
401.66	1.075
401.86	1.081
402.07	1.065
402.28	1.078
402.48	1.084
402.69	1.068
402.89	1.062
403.10	1.081
403.31	1.076
403.51	1.092
403.72	1.084
403.92	1.089
404.13	1.095
404.33	1.110
404.54	1.096
404.75	1.093
404.95	1.115
405.16	1.115
405.36	1.107
405.57	1.103
405.77	1.125
405.98	1.107
406.18	1.115
406.39	1.111
406.60	1.099
406.80	1.081
407.01	1.093
407.21	1.072
407.42	1.072
407.62	1.073
407.83	1.027
408.03	1.016
408.24	1.032
408.45	1.016
408.65	1.031
408.86	1.051
409.06	1.087
409.27	1.080
409.47	1.080
409.68	1.088
409.88	1.116
410.09	1.156
410.29	1.147
410.50	1.162
410.71	1.189
410.91	1.185
411.12	1.182
411.32	1.163
411.53	1.156
411.73	1.172
411.94	1.153
412.14	1.143
412.35	1.118
412.55	1.127
412.76	1.105
412.96	1.110
413.17	1.102
413.37	1.097
413.58	1.142
413.78	1.152
413.99	1.170
414.19	1.219
414.40	1.223
414.61	1.238
414.81	1.243
415.02	1.258
415.22	1.238
415.43	1.247
415.63	1.255
415.84	1.217
416.04	1.209
416.25	1.194
416.45	1.165
416.66	1.161
416.86	1.161
417.07	1.150
417.27	1.154
417.48	1.172
417.68	1.172
417.89	1.164
418.09	1.160
418.30	1.159
418.50	1.142
418.71	1.143
418.91	1.119
419.12	1.119
419.32	1.111
419.53	1.108
419.73	1.096
419.94	1.112
420.14	1.101
420.34	1.108
420.55	1.110
420.75	1.121
420.96	1.122
421.16	1.130
421.37	1.130
421.57	1.158
421.78	1.149
421.98	1.152
422.19	1.141
422.39	1.165
422.60	1.153
422.80	1.152
423.01	1.140
423.21	1.151
423.42	1.149
423.62	1.141
423.83	1.119
424.03	1.134
424.23	1.134
424.44	1.124
424.64	1.122
424.85	1.130
425.05	1.139
425.26	1.155
425.46	1.157
425.67	1.157
425.87	1.168
426.08	1.187
426.28	1.157
426.48	1.159
426.69	1.164
426.89	1.158
427.10	1.175
427.30	1.185
427.51	1.176
427.71	1.166
427.92	1.155
428.12	1.147
428.32	1.127
428.53	1.162
428.73	1.174
428.94	1.194
429.14	1.166
429.35	1.152
429.55	1.135
429.76	1.139
429.96	1.134
430.16	1.162
430.37	1.175
430.57	1.180
430.78	1.198
430.98	1.183
431.19	1.171
431.39	1.174
431.59	1.172
431.80	1.183
432.00	1.168
432.21	1.166
432.41	1.146
432.61	1.134
432.82	1.128
433.02	1.125
433.23	1.112
433.43	1.112
433.64	1.115
433.84	1.120
434.04	1.111
434.25	1.127
434.45	1.131
434.66	1.140
434.86	1.144
435.06	1.155
435.27	1.141
435.47	1.167
435.68	1.166
435.88	1.163
436.08	1.153
436.29	1.140
436.49	1.142
436.70	1.135
436.90	1.142
437.10	1.158
437.31	1.147
437.51	1.146
437.71	1.144
437.92	1.142
438.12	1.145
438.33	1.162
438.53	1.172
438.73	1.167
438.94	1.163
439.14	1.163
439.35	1.150
439.55	1.161
439.75	1.158
439.96	1.156
440.16	1.160
440.36	1.173
440.57	1.171
440.77	1.174
440.97	1.169
441.18	1.180
441.38	1.178
441.59	1.203
441.79	1.203
441.99	1.216
442.20	1.197
442.40	1.204
442.60	1.201
442.81	1.185
443.01	1.172
443.21	1.165
443.42	1.152
443.62	1.158
443.83	1.143
444.03	1.144
444.23	1.144
444.44	1.165
444.64	1.163
444.84	1.160
445.05	1.158
445.25	1.163
445.45	1.186
445.66	1.189
445.86	1.180
446.06	1.184
446.27	1.185
446.47	1.182
446.67	1.184
446.88	1.179
447.08	1.176
447.28	1.187
447.49	1.182
447.69	1.163
447.89	1.179
448.10	1.187
448.30	1.178
448.50	1.161
448.71	1.149
448.91	1.142
449.11	1.141
449.32	1.156
449.52	1.163
449.72	1.170
449.93	1.165
450.13	1.144
450.33	1.145
450.53	1.138
450.74	1.163
450.94	1.177
451.14	1.179
451.35	1.200
451.55	1.190
451.75	1.192
451.96	1.192
452.16	1.196
452.36	1.199
452.57	1.213
452.77	1.233
452.97	1.213
453.17	1.209
453.38	1.236
453.58	1.221
453.78	1.222
453.99	1.207
454.19	1.219
454.39	1.223
454.59	1.242
454.80	1.230
455.00	1.222
455.20	1.228
455.41	1.211
455.61	1.182
455.81	1.183
456.01	1.175
456.22	1.198
456.42	1.201
456.62	1.214
456.83	1.192
457.03	1.185
457.23	1.175
457.43	1.185
457.64	1.218
457.84	1.212
458.04	1.214
458.25	1.226
458.45	1.210
458.65	1.197
458.85	1.178
459.06	1.171
459.26	1.164
459.46	1.168
459.66	1.170
459.87	1.174
460.07	1.179
460.27	1.187
460.47	1.179
460.68	1.187
460.88	1.185
461.08	1.194
461.28	1.208
461.49	1.215
461.69	1.225
461.89	1.237
462.09	1.238
462.30	1.238
462.50	1.232
462.70	1.238
462.90	1.224
463.11	1.248
463.31	1.238
463.51	1.234
463.71	1.242
463.92	1.242
464.12	1.220
464.32	1.207
464.52	1.203
464.72	1.205
464.93	1.197
465.13	1.204
465.33	1.187
465.53	1.187
465.74	1.187
465.94	1.174
466.14	1.171
466.34	1.174
466.54	1.163
466.75	1.163
466.95	1.149
467.15	1.158
467.35	1.152
467.56	1.168
467.76	1.184
467.96	1.186
468.16	1.186
468.36	1.172
468.57	1.179
468.77	1.195
468.97	1.193
469.17	1.200
469.37	1.196
469.58	1.209
469.78	1.201
469.98	1.194
470.18	1.187
470.38	1.196
470.59	1.203
470.79	1.198
470.99	1.191
471.19	1.199
471.39	1.200
471.60	1.194
471.80	1.172
472.00	1.167
472.20	1.168
472.40	1.185
472.61	1.186
472.81	1.186
473.01	1.179
473.21	1.179
473.41	1.172
473.61	1.162
473.82	1.184
474.02	1.194
474.22	1.197
474.42	1.203
474.62	1.208
474.82	1.205
475.03	1.223
475.23	1.230
475.43	1.249
475.63	1.257
475.83	1.263
476.03	1.240
476.24	1.228
476.44	1.230
476.64	1.224
476.84	1.214
477.04	1.211
477.24	1.199
477.45	1.205
477.65	1.202
477.85	1.194
478.05	1.191
478.25	1.195
478.45	1.211
478.65	1.211
478.86	1.205
479.06	1.198
479.26	1.212
479.46	1.216
479.66	1.221
479.86	1.204
480.06	1.214
480.27	1.213
480.47	1.209
480.67	1.193
480.87	1.186
481.07	1.189
481.27	1.203
481.47	1.204
481.68	1.194
481.88	1.196
482.08	1.215
482.28	1.221
482.48	1.229
482.68	1.234
482.88	1.233
483.08	1.239
483.29	1.246
483.49	1.234
483.69	1.221
483.89	1.223
484.09	1.221
484.29	1.217
484.49	1.217
484.69	1.217
484.89	1.216
485.10	1.224
485.30	1.221
485.50	1.219
485.70	1.229
485.90	1.242
486.10	1.250
486.30	1.253
486.50	1.251
486.70	1.245
486.90	1.241
487.11	1.245
487.31	1.242
487.51	1.238
487.71	1.232
487.91	1.235
488.11	1.236
488.31	1.238
488.51	1.238
488.71	1.242
488.91	1.250
489.11	1.256
489.32	1.255
489.52	1.259
489.72	1.266
489.92	1.272
490.12	1.273
490.32	1.289
490.52	1.275
490.72	1.264
490.92	1.258
491.12	1.238
491.32	1.237
491.52	1.230
491.72	1.231
491.92	1.232
492.13	1.235
492.33	1.236
492.53	1.227
492.73	1.229
492.93	1.246
493.13	1.256
493.33	1.280
493.53	1.289
493.73	1.296
493.93	1.292
494.13	1.299
494.33	1.289
494.53	1.288
494.73	1.287
494.93	1.296
495.13	1.277
495.33	1.266
495.53	1.249
495.73	1.242
495.94	1.242
496.14	1.237
496.34	1.224
496.54	1.225
496.74	1.218
496.94	1.222
497.14	1.214
497.34	1.229
497.54	1.228
497.74	1.237
497.94	1.246
498.14	1.249
498.34	1.258
498.54	1.267
498.74	1.267
498.94	1.278
499.14	1.274
499.34	1.276
499.54	1.263
499.74	1.275
499.94	1.273
500.14	1.263
500.34	1.273
500.54	1.280
500.74	1.284
500.94	1.299
501.14	1.284
501.34	1.291
501.54	1.292
501.74	1.285
501.94	1.268
502.14	1.267
502.34	1.272
502.54	1.264
502.74	1.251
502.94	1.247
503.14	1.238
503.34	1.250
503.54	1.259
503.74	1.257
503.94	1.262
504.14	1.278
504.34	1.280
504.54	1.282
504.74	1.282
504.94	1.283
505.14	1.290
505.34	1.294
505.54	1.291
505.74	1.292
505.94	1.296
506.14	1.313
506.34	1.309
506.54	1.315
506.74	1.315
506.94	1.310
507.14	1.308
507.34	1.303
507.54	1.297
507.74	1.288
507.94	1.278
508.14	1.284
508.34	1.271
508.54	1.267
508.74	1.274
508.94	1.276
509.13	1.282
509.33	1.293
509.53	1.293
509.73	1.297
509.93	1.314
510.13	1.321
510.33	1.318
510.53	1.318
510.73	1.320
510.93	1.312
511.13	1.309
511.33	1.309
511.53	1.308
511.73	1.300
511.93	1.303
512.13	1.290
512.33	1.292
512.53	1.287
512.73	1.294
512.92	1.304
513.12	1.308
513.32	1.320
513.52	1.327
513.72	1.322
513.92	1.330
514.12	1.330
514.32	1.335
514.52	1.327
514.72	1.334
514.92	1.333
515.12	1.320
515.32	1.308
515.52	1.298
515.71	1.297
515.91	1.291
516.11	1.296
516.31	1.294
516.51	1.294
516.71	1.299
516.91	1.302
517.11	1.302
517.31	1.297
517.51	1.302
517.71	1.310
517.90	1.306
518.10	1.311
518.30	1.309
518.50	1.300
518.70	1.297
518.90	1.296
519.10	1.291
519.30	1.296
519.50	1.313
519.69	1.314
519.89	1.309
520.09	1.306
520.29	1.311
520.49	1.308
520.69	1.324
520.89	1.341
521.09	1.335
521.29	1.335
521.48	1.332
521.68	1.318
521.88	1.315
522.08	1.322
522.28	1.341
522.48	1.337
522.68	1.340
522.88	1.335
523.07	1.341
523.27	1.353
523.47	1.360
523.67	1.362
523.87	1.361
524.07	1.360
524.27	1.343
524.47	1.319
524.66	1.320
524.86	1.324
525.06	1.323
525.26	1.320
525.46	1.317
525.66	1.318
525.85	1.316
526.05	1.324
526.25	1.318
526.45	1.323
526.65	1.341
526.85	1.349
527.05	1.352
527.24	1.364
527.44	1.351
527.64	1.350
527.84	1.341
528.04	1.334
528.24	1.324
528.43	1.326
528.63	1.334
528.83	1.330
529.03	1.329
529.23	1.328
529.43	1.325
529.62	1.333
529.82	1.331
530.02	1.341
530.22	1.350
530.42	1.366
530.62	1.374
530.81	1.373
531.01	1.380
531.21	1.390
531.41	1.396
531.61	1.395
531.80	1.392
532.00	1.390
532.20	1.386
532.40	1.387
532.60	1.377
532.79	1.371
532.99	1.363
533.19	1.365
533.39	1.354
533.59	1.359
533.78	1.353
533.98	1.354
534.18	1.359
534.38	1.362
534.58	1.363
534.77	1.366
534.97	1.369
535.17	1.383
535.37	1.376
535.57	1.385
535.76	1.375
535.96	1.388
536.16	1.376
536.36	1.379
536.56	1.374
536.75	1.370
536.95	1.375
537.15	1.380
537.35	1.384
537.54	1.393
537.74	1.386
537.94	1.391
538.14	1.384
538.34	1.399
538.53	1.414
538.73	1.414
538.93	1.409
539.13	1.409
539.32	1.416
539.52	1.412
539.72	1.409
539.92	1.415
540.11	1.402
540.31	1.394
540.51	1.383
540.71	1.360
540.90	1.348
541.10	1.358
541.30	1.357
541.50	1.355
541.69	1.351
541.89	1.351
542.09	1.350
542.29	1.355
542.48	1.360
542.68	1.374
542.88	1.384
543.08	1.400
543.27	1.395
543.47	1.399
543.67	1.397
543.87	1.403
544.06	1.393
544.26	1.399
544.46	1.394
544.65	1.399
544.85	1.401
545.05	1.408
545.25	1.409
545.44	1.411
545.64	1.416
545.84	1.420
546.04	1.418
546.23	1.424
546.43	1.417
546.63	1.420
546.82	1.398
547.02	1.390
547.22	1.388
547.42	1.388
547.61	1.397
547.81	1.396
548.01	1.398
548.20	1.404
548.40	1.406
548.60	1.410
548.79	1.403
548.99	1.440
549.19	1.429
549.39	1.416
549.58	1.426
549.78	1.404
549.98	1.410
550.17	1.410
550.37	1.397
550.57	1.391
550.76	1.381
550.96	1.395
551.16	1.391
551.35	1.393
551.55	1.390
551.75	1.380
551.94	1.379
552.14	1.368
552.34	1.355
552.53	1.367
552.73	1.374
552.93	1.383
553.13	1.382
553.32	1.372
553.52	1.386
553.72	1.407
553.91	1.407
554.11	1.416
554.31	1.420
554.50	1.426
554.70	1.418
554.89	1.431
555.09	1.427
555.29	1.420
555.48	1.414
555.68	1.396
555.88	1.386
556.07	1.394
556.27	1.391
556.47	1.388
556.66	1.392
556.86	1.393
557.06	1.389
557.25	1.390
557.45	1.390
557.65	1.399
557.84	1.405
558.04	1.401
558.23	1.381
558.43	1.384
558.63	1.403
558.82	1.399
559.02	1.394
559.22	1.382
559.41	1.383
559.61	1.382
559.81	1.383
560.00	1.393
560.20	1.405
560.39	1.430
560.59	1.442
560.79	1.423
560.98	1.437
561.18	1.436
561.37	1.436
561.57	1.435
561.77	1.444
561.96	1.441
562.16	1.435
562.36	1.427
562.55	1.419
562.75	1.409
562.94	1.415
563.14	1.397
563.34	1.400
563.53	1.400
563.73	1.413
563.92	1.432
564.12	1.422
564.32	1.422
564.51	1.435
564.71	1.444
564.90	1.448
565.10	1.448
565.29	1.460
565.49	1.466
565.69	1.476
565.88	1.457
566.08	1.442
566.27	1.454
566.47	1.455
566.67	1.454
566.86	1.452
567.06	1.459
567.25	1.464
567.45	1.480
567.64	1.478
567.84	1.481
568.04	1.496
568.23	1.499
568.43	1.501
568.62	1.506
568.82	1.498
569.01	1.495
569.21	1.477
569.41	1.489
569.60	1.477
569.80	1.485
569.99	1.476
570.19	1.484
570.38	1.480
570.58	1.480
570.77	1.476
570.97	1.480
571.17	1.486
571.36	1.504
571.56	1.495
571.75	1.485
571.95	1.483
572.14	1.481
572.34	1.474
572.53	1.487
572.73	1.495
572.92	1.494
573.12	1.493
573.31	1.497
573.51	1.492
573.70	1.492
573.90	1.498
574.10	1.492
574.29	1.499
574.49	1.510
574.68	1.494
574.88	1.476
575.07	1.486
575.27	1.500
575.46	1.486
575.66	1.491
575.85	1.492
576.05	1.503
576.24	1.515
576.44	1.515
576.63	1.511
576.83	1.525
577.02	1.541
577.22	1.529
577.41	1.512
577.61	1.504
577.80	1.511
578.00	1.507
578.19	1.501
578.39	1.488
578.58	1.479
578.78	1.476
578.97	1.482
579.17	1.498
579.36	1.498
579.56	1.518
579.75	1.532
579.95	1.527
580.14	1.518
580.34	1.530
580.53	1.543
580.73	1.557
580.92	1.553
581.12	1.529
581.31	1.500
581.51	1.499
581.70	1.503
581.89	1.510
582.09	1.500
582.28	1.511
582.48	1.506
582.67	1.517
582.87	1.518
583.06	1.522
583.26	1.528
583.45	1.542
583.65	1.543
583.84	1.540
584.04	1.526
584.23	1.533
584.43	1.533
584.62	1.516
584.81	1.512
585.01	1.508
585.20	1.504
585.40	1.517
585.59	1.518
585.79	1.547
585.98	1.543
586.18	1.551
586.37	1.539
586.56	1.530
586.76	1.530
586.95	1.518
587.15	1.512
587.34	1.521
587.54	1.515
587.73	1.525
587.92	1.509
588.12	1.511
588.31	1.524
588.51	1.539
588.70	1.561
588.90	1.570
589.09	1.576
589.28	1.581
589.48	1.567
589.67	1.566
589.87	1.545
590.06	1.543
590.25	1.539
590.45	1.532
590.64	1.542
590.84	1.539
591.03	1.541
591.23	1.544
591.42	1.541
591.61	1.551
591.81	1.555
592.00	1.553
592.20	1.550
592.39	1.548
592.58	1.545
592.78	1.536
592.97	1.532
593.17	1.524
593.36	1.525
593.55	1.540
593.75	1.547
593.94	1.550
594.13	1.558
594.33	1.562
594.52	1.558
594.72	1.569
594.91	1.572
595.10	1.578
595.30	1.577
595.49	1.570
595.68	1.566
595.88	1.562
596.07	1.542
596.27	1.553
596.46	1.551
596.65	1.554
596.85	1.537
597.04	1.536
597.23	1.542
597.43	1.557
597.62	1.558
597.81	1.549
598.01	1.555
598.20	1.578
598.40	1.570
598.59	1.569
598.78	1.584
598.98	1.596
599.17	1.597
599.36	1.589
599.56	1.601
599.75	1.594
599.94	1.606
600.14	1.593
600.33	1.606
600.52	1.618
600.72	1.645
600.91	1.633
601.10	1.635
601.30	1.629
601.49	1.626
601.68	1.613
601.88	1.631
602.07	1.615
602.26	1.619
602.46	1.595
602.65	1.596
602.84	1.598
603.04	1.602
603.23	1.606
603.42	1.624
603.62	1.633
603.81	1.633
604.00	1.633
604.20	1.638
604.39	1.645
604.58	1.652
604.77	1.652
604.97	1.644
605.16	1.648
605.35	1.642
605.55	1.627
605.74	1.614
605.93	1.619
606.13	1.626
606.32	1.628
606.51	1.624
606.70	1.639
606.90	1.639
607.09	1.650
607.28	1.646
607.48	1.657
607.67	1.658
607.86	1.664
608.05	1.662
608.25	1.643
608.44	1.652
608.63	1.665
608.83	1.645
609.02	1.646
609.21	1.641
609.40	1.652
609.60	1.646
609.79	1.647
609.98	1.645
610.17	1.642
610.37	1.648
610.56	1.649
610.75	1.638
610.95	1.645
611.14	1.632
611.33	1.639
611.52	1.612
611.72	1.626
611.91	1.639
612.10	1.638
612.29	1.642
612.49	1.642
612.68	1.642
612.87	1.638
613.06	1.644
613.26	1.661
613.45	1.652
613.64	1.690
613.83	1.670
614.03	1.650
614.22	1.671
614.41	1.675
614.60	1.678
614.79	1.676
614.99	1.686
615.18	1.676
615.37	1.679
615.56	1.655
615.76	1.653
615.95	1.667
616.14	1.679
616.33	1.676
616.53	1.667
616.72	1.673
616.91	1.676
617.10	1.681
617.29	1.691
617.49	1.682
617.68	1.710
617.87	1.694
618.06	1.704
618.25	1.715
618.45	1.720
618.64	1.717
618.83	1.719
619.02	1.724
619.21	1.728
619.41	1.734
619.60	1.738
619.79	1.729
619.98	1.732
620.17	1.737
620.37	1.738
620.56	1.732
620.75	1.737
620.94	1.736
621.13	1.739
621.33	1.718
621.52	1.715
621.71	1.727
621.90	1.733
622.09	1.722
622.28	1.709
622.48	1.696
622.67	1.698
622.86	1.697
623.05	1.706
623.24	1.688
623.44	1.707
623.63	1.700
623.82	1.714
624.01	1.696
624.20	1.692
624.39	1.712
624.59	1.715
624.78	1.717
624.97	1.728
625.16	1.704
625.35	1.719
625.54	1.730
625.73	1.733
625.93	1.717
626.12	1.744
626.31	1.770
626.50	1.743
626.69	1.737
626.88	1.728
627.07	1.727
627.27	1.740
627.46	1.757
627.65	1.750
627.84	1.759
628.03	1.753
628.22	1.741
628.41	1.719
628.61	1.752
628.80	1.752
628.99	1.770
629.18	1.776
629.37	1.785
629.56	1.783
629.75	1.769
629.94	1.766
630.14	1.774
630.33	1.789
630.52	1.805
630.71	1.788
630.90	1.818
631.09	1.823
631.28	1.810
631.47	1.795
631.66	1.777
631.86	1.797
632.05	1.787
632.24	1.781
632.43	1.767
632.62	1.758
632.81	1.746
633.00	1.734
633.19	1.717
633.38	1.722
633.57	1.734
633.77	1.741
633.96	1.750
634.15	1.761
634.34	1.771
634.53	1.770
634.72	1.775
634.91	1.789
635.10	1.790
635.29	1.797
635.48	1.812
635.67	1.808
635.86	1.812
636.05	1.815
636.25	1.826
636.44	1.836
636.63	1.834
636.82	1.860
637.01	1.870
637.20	1.882
637.39	1.897
637.58	1.882
637.77	1.898
637.96	1.905
638.15	1.891
638.34	1.876
638.53	1.875
638.72	1.868
638.91	1.863
639.10	1.884
639.30	1.862
639.49	1.847
639.68	1.851
639.87	1.848
640.06	1.822
640.25	1.838
640.44	1.842
640.63	1.825
640.82	1.827
641.01	1.845
641.20	1.833
641.39	1.848
641.58	1.854
641.77	1.858
641.96	1.847
642.15	1.876
642.34	1.875
642.53	1.881
642.72	1.892
642.91	1.892
643.10	1.875
643.29	1.869
643.48	1.879
643.67	1.879
643.86	1.915
644.05	1.963
644.24	1.963
644.43	1.965
644.62	1.978
644.81	1.969
645.00	1.996
645.19	2.008
645.38	1.986
645.57	1.996
645.76	2.012
645.95	1.998
646.14	1.975
646.33	1.990
646.52	1.983
646.71	1.982
646.90	2.027
647.09	2.019
647.28	2.006
647.47	2.015
647.66	1.993
647.85	2.017
648.04	2.022
648.23	2.014
648.42	2.003
648.61	1.987
648.80	1.957
648.99	1.921
649.18	1.921
649.37	1.924
649.56	1.941
649.75	1.935
649.94	1.916
650.13	1.915
650.32	1.917
650.51	1.906
650.70	1.916
650.89	1.932
651.08	1.931
651.27	1.936
651.46	1.926
651.65	1.919
651.83	1.946
652.02	1.937
652.21	1.922
652.40	1.932
652.59	1.959
652.78	1.971
652.97	1.963
653.16	1.983
653.35	1.986
653.54	2.014
653.73	2.051
653.92	2.027
654.11	2.013
654.30	2.034
654.49	2.066
654.68	2.050
654.86	2.073
655.05	2.100
655.24	2.090
655.43	2.068
655.62	2.042
655.81	1.978
656.00	1.982
656.19	2.002
656.38	1.982
656.57	1.936
656.76	1.924
656.95	1.924
657.13	1.922
657.32	1.947
657.51	1.974
657.70	2.011
657.89	2.067
658.08	2.086
658.27	2.096
658.46	2.089
658.65	2.086
658.84	2.078
659.02	2.079
659.21	2.098
659.40	2.106
659.59	2.122
659.78	2.087
659.97	2.059
660.16	2.053
660.35	2.037
660.54	2.042
660.72	2.061
660.91	2.069
661.10	2.037
661.29	2.016
661.48	1.998
661.67	1.990
661.86	2.016
662.05	2.025
662.23	2.020
662.42	2.022
662.61	2.033
662.80	2.023
662.99	2.060
663.18	2.105
663.37	2.085
663.56	2.092
663.74	2.064
663.93	2.054
664.12	2.055
664.31	2.057
664.50	2.069
664.69	2.082
664.87	2.077
665.06	2.053
665.25	2.040
665.44	2.039
665.63	2.043
665.82	2.041
666.01	2.039
666.19	2.058
666.38	2.064
666.57	2.048
666.76	2.039
666.95	2.041
667.14	2.035
667.32	2.041
667.51	2.073
667.70	2.043
667.89	2.049
668.08	2.069
668.26	2.066
668.45	2.060
668.64	2.063
668.83	2.079
669.02	2.110
669.21	2.131
669.39	2.140
669.58	2.132
669.77	2.149
669.96	2.176
670.15	2.160
670.33	2.138
670.52	2.131
670.71	2.149
670.90	2.117
671.09	2.105
671.27	2.102
671.46	2.075
671.65	2.085
671.84	2.096
672.03	2.110
672.21	2.134
672.40	2.164
672.59	2.167
672.78	2.163
672.96	2.163
673.15	2.165
673.34	2.179
673.53	2.177
673.72	2.160
673.90	2.165
674.09	2.164
674.28	2.161
674.47	2.164
674.65	2.181
674.84	2.175
675.03	2.176
675.22	2.160
675.41	2.145
675.59	2.141
675.78	2.160
675.97	2.150
676.16	2.132
676.34	2.127
676.53	2.125
676.72	2.125
676.91	2.166
677.09	2.209
677.28	2.235
677.47	2.230
677.66	2.247
677.84	2.265
678.03	2.301
678.22	2.338
678.41	2.345
678.59	2.356
678.78	2.356
678.97	2.342
679.15	2.340
679.34	2.332
679.53	2.354
679.72	2.356
679.90	2.342
680.09	2.326
680.28	2.312
680.47	2.290
680.65	2.267
680.84	2.270
681.03	2.277
681.21	2.265
681.40	2.266
681.59	2.267
681.78	2.273
681.96	2.284
682.15	2.283
682.34	2.269
682.52	2.281
682.71	2.296
682.90	2.295
683.08	2.288
683.27	2.299
683.46	2.295
683.65	2.278
683.83	2.264
684.02	2.263
684.21	2.272
684.39	2.288
684.58	2.311
684.77	2.341
684.95	2.344
685.14	2.335
685.33	2.338
685.51	2.356
685.70	2.360
685.89	2.353
686.07	2.367
686.26	2.368
686.45	2.385
686.63	2.381
686.82	2.372
687.01	2.375
687.20	2.391
687.38	2.375
687.57	2.361
687.75	2.382
687.94	2.436
688.13	2.420
688.31	2.415
688.50	2.408
688.69	2.407
688.87	2.407
689.06	2.410
689.25	2.423
689.43	2.438
689.62	2.433
689.81	2.442
689.99	2.415
690.18	2.403
690.37	2.389
690.55	2.388
690.74	2.408
690.93	2.386
691.11	2.388
691.30	2.383
691.48	2.388
691.67	2.393
691.86	2.380
692.04	2.386
692.23	2.415
692.42	2.469
692.60	2.464
692.79	2.439
692.97	2.466
693.16	2.494
693.35	2.480
693.53	2.467
693.72	2.474
693.90	2.476
694.09	2.465
694.28	2.471
694.46	2.422
694.65	2.422
694.83	2.439
695.02	2.436
695.21	2.427
695.39	2.458
695.58	2.481
695.76	2.510
695.95	2.507
696.14	2.522
696.32	2.516
696.51	2.534
696.69	2.562
696.88	2.593
697.07	2.577
697.25	2.575
697.44	2.574
697.62	2.570
697.81	2.559
697.99	2.565
698.18	2.563
698.37	2.553
698.55	2.577
698.74	2.575
698.92	2.548
699.11	2.560
699.29	2.571
699.48	2.567
699.67	2.564
699.85	2.565
700.04	2.550
700.22	2.564
700.41	2.581
700.59	2.544
700.78	2.537
700.96	2.545
701.15	2.548
701.34	2.537
701.52	2.522
701.71	2.560
701.89	2.572
702.08	2.605
702.26	2.637
702.45	2.652
702.63	2.668
702.82	2.669
703.00	2.671
703.19	2.660
703.38	2.664
703.56	2.672
703.75	2.639
703.93	2.650
704.12	2.699
704.30	2.655
704.49	2.674
704.67	2.714
704.86	2.711
705.04	2.738
705.23	2.765
705.41	2.771
705.60	2.787
705.78	2.793
705.97	2.771
706.15	2.721
706.34	2.772
706.52	2.746
706.71	2.738
706.89	2.754
707.08	2.708
707.26	2.717
707.45	2.727
707.63	2.704
707.82	2.699
708.00	2.699
708.19	2.685
708.37	2.661
708.56	2.659
708.74	2.638
708.93	2.622
709.11	2.655
709.30	2.655
709.48	2.664
709.67	2.689
709.85	2.688
710.04	2.724
710.22	2.780
710.41	2.765
710.59	2.769
710.77	2.802
710.96	2.833
711.14	2.800
711.33	2.784
711.51	2.776
711.70	2.795
711.88	2.793
712.07	2.772
712.25	2.711
712.44	2.720
712.62	2.703
712.80	2.685
712.99	2.675
713.17	2.701
713.36	2.706
713.54	2.748
713.73	2.699
713.91	2.728
714.10	2.698
714.28	2.722
714.46	2.726
714.65	2.790
714.83	2.816
715.02	2.822
715.20	2.841
715.39	2.842
715.57	2.790
715.75	2.824
715.94	2.816
716.12	2.862
716.31	2.878
716.49	2.867
716.68	2.824
716.86	2.806
717.04	2.812
717.23	2.827
717.41	2.863
717.60	2.880
717.78	2.916
717.96	2.922
718.15	2.905
718.33	2.915
718.52	2.949
718.70	2.977
718.88	3.002
719.07	2.981
719.25	2.951
719.44	2.940
719.62	2.978
719.80	2.925
719.99	2.934
720.17	2.957
720.36	2.932
720.54	2.923
720.72	2.957
720.91	2.922
721.09	2.919
721.27	2.911
721.46	2.912
721.64	2.883
721.83	2.915
722.01	2.929
722.19	2.924
722.38	2.944
722.56	2.942
722.74	2.897
722.93	2.921
723.11	2.909
723.30	2.908
723.48	2.934
723.66	2.915
723.85	2.954
724.03	2.906
724.21	2.970
724.40	2.952
724.58	2.966
724.76	2.967
724.95	2.935
725.13	3.005
725.31	3.043
725.50	3.013
725.68	3.007
725.86	2.976
726.05	3.029
726.23	3.008
726.41	3.056
726.60	3.031
726.78	3.005
726.96	3.035
727.15	2.980
727.33	3.007
727.51	3.017
727.70	3.038
727.88	3.047
728.06	3.037
728.25	3.000
728.43	2.976
728.61	3.064
728.80	3.100
728.98	3.148
729.16	3.161
729.34	3.174
729.53	3.177
729.71	3.202
729.89	3.202
730.08	3.187
730.26	3.190
730.44	3.196
730.63	3.168
730.81	3.166
730.99	3.139
731.17	3.203
731.36	3.182
731.54	3.177
731.72	3.182
731.91	3.220
732.09	3.208
732.27	3.241
732.45	3.281
732.64	3.281
732.82	3.272
733.00	3.275
733.19	3.228
733.37	3.240
733.55	3.243
733.73	3.199
733.92	3.188
734.10	3.255
734.28	3.231
734.46	3.199
734.65	3.175
734.83	3.204
735.01	3.241
735.19	3.205
735.38	3.203
735.56	3.218
735.74	3.256
735.92	3.220
736.11	3.174
736.29	3.208
736.47	3.217
736.65	3.218
736.84	3.190
737.02	3.171
737.20	3.246
737.38	3.247
737.57	3.224
737.75	3.239
737.93	3.281
738.11	3.302
738.30	3.313
738.48	3.340
738.66	3.321
738.84	3.344
739.02	3.336
739.21	3.343
739.39	3.331
739.57	3.399
739.75	3.338
739.93	3.344
740.12	3.356
740.30	3.345
740.48	3.273
740.66	3.310
740.85	3.333
741.03	3.353
741.21	3.333
741.39	3.357
741.57	3.311
741.76	3.370
741.94	3.346
742.12	3.365
742.30	3.406
742.48	3.437
742.66	3.410
742.85	3.412
743.03	3.422
743.21	3.411
743.39	3.397
743.57	3.408
743.76	3.418
743.94	3.412
744.12	3.324
744.30	3.279
744.48	3.290
744.66	3.335
744.85	3.312
745.03	3.295
745.21	3.339
745.39	3.386
745.57	3.424
745.75	3.417
745.94	3.438
746.12	3.536
746.30	3.566
746.48	3.577
746.66	3.529
746.84	3.503
747.02	3.533
747.21	3.560
747.39	3.470
747.57	3.491
747.75	3.507
747.93	3.573
748.11	3.562
748.29	3.566
748.48	3.559
748.66	3.618
748.84	3.634
749.02	3.649
749.20	3.593
749.38	3.635
749.56	3.601
749.75	3.638
749.93	3.589
750.11	3.589
750.29	3.508
750.47	3.562
750.65	3.504
750.83	3.507
751.01	3.418
751.19	3.456
751.38	3.491
751.56	3.465
751.74	3.430
751.92	3.416
752.10	3.466
752.28	3.608
752.46	3.589
752.64	3.621
752.82	3.649
753.00	3.750
753.19	3.747
753.37	3.691
753.55	3.711
753.73	3.697
753.91	3.713
754.09	3.603
754.27	3.493
754.45	3.538
754.63	3.572
754.81	3.526
754.99	3.496
755.17	3.553
755.36	3.621
755.54	3.644
755.72	3.669
755.90	3.688
756.08	3.739
756.26	3.790
756.44	3.750
756.62	3.771
756.80	3.847
756.98	3.795
757.16	3.738
757.34	3.763
757.52	3.787
757.70	3.809
757.88	3.775
758.06	3.778
758.24	3.774
758.42	3.820
758.61	3.796
758.79	3.789
758.97	3.829
759.15	3.811
759.33	3.792
759.51	3.783
759.69	3.775
759.87	3.841
760.05	3.841
760.23	3.869
760.41	3.847
760.59	3.816
760.77	3.839
760.95	3.846
761.13	3.891
761.31	3.906
761.49	3.894
761.67	3.903
761.85	3.886
762.03	3.925
762.21	3.912
762.39	3.878
762.57	3.925
762.75	3.898
762.93	3.917
763.11	3.909
763.29	3.900
763.47	3.908
763.65	3.898
763.83	3.878
764.01	3.864
764.19	3.874
764.37	3.907
764.55	3.871
764.73	3.916
764.91	3.908
765.09	3.921
765.27	3.908
765.45	3.899
765.63	3.943
765.81	3.954
765.99	3.976
766.17	3.971
766.35	3.978
766.53	4.033
766.71	3.979
766.89	4.007
767.07	4.023
767.25	4.028
767.43	4.041
767.61	4.036
767.78	4.037
767.96	3.996
768.14	3.976
768.32	3.984
768.50	3.997
768.68	3.990
768.86	3.970
769.04	3.935
769.22	3.965
769.40	3.957
769.58	3.954
769.76	3.949
769.94	4.030
770.12	4.065
770.30	4.022
770.48	3.953
770.66	4.059
770.84	4.076
771.01	4.083
771.19	4.091
771.37	4.223
771.55	4.192
771.73	4.204
771.91	4.173
772.09	4.171
772.27	4.258
772.45	4.296
772.63	4.258
772.81	4.284
772.99	4.234
773.16	4.204
773.34	4.103
773.52	4.193
773.70	4.198
773.88	4.254
774.06	4.297
774.24	4.195
774.42	4.240
774.60	4.196
774.78	4.049
774.95	4.117
775.13	4.209
775.31	4.198
775.49	4.161
775.67	4.176
775.85	4.154
776.03	4.163
776.21	4.199
776.38	4.180
776.56	4.248
776.74	4.470
776.92	4.458
777.10	4.423
777.28	4.436
777.46	4.377
777.64	4.375
777.81	4.344
777.99	4.367
778.17	4.397
778.35	4.397
778.53	4.495
778.71	4.416
778.89	4.521
779.06	4.524
779.24	4.522
779.42	4.592
779.60	4.633
779.78	4.684
779.96	4.712
780.13	4.697
780.31	4.717
780.49	4.594
780.67	4.580
780.85	4.520
781.03	4.514
781.20	4.502
781.38	4.511
781.56	4.547
781.74	4.562
781.92	4.447
782.10	4.461
782.27	4.516
782.45	4.512
782.63	4.453
782.81	4.531
782.99	4.583
783.17	4.706
783.34	4.640
783.52	4.605
783.70	4.590
783.88	4.571
784.06	4.615
784.23	4.557
784.41	4.565
784.59	4.594
784.77	4.577
784.95	4.572
785.12	4.408
785.30	4.422
785.48	4.488
785.66	4.489
785.83	4.509
786.01	4.536
786.19	4.531
786.37	4.483
786.55	4.549
786.72	4.453
786.90	4.498
787.08	4.668
787.26	4.709
787.43	4.651
787.61	4.563
787.79	4.678
787.97	4.644
788.15	4.702
788.32	4.732
788.50	4.718
788.68	4.712
788.86	4.588
789.03	4.617
789.21	4.602
789.39	4.607
789.57	4.730
789.74	4.749
789.92	4.683
790.10	4.670
790.28	4.708
790.45	4.786
790.63	4.894
790.81	4.987
790.99	4.903
791.16	4.913
791.34	4.964
791.52	4.918
791.69	4.899
791.87	5.020
792.05	5.031
792.23	5.007
792.40	4.943
792.58	4.837
792.76	4.787
792.94	4.788
793.11	4.819
793.29	4.836
793.47	4.859
793.64	4.784
793.82	4.788
794.00	4.700
794.18	4.609
794.35	4.629
794.53	4.685
794.71	4.683
794.88	4.672
795.06	4.747
795.24	4.673
795.41	4.629
795.59	4.719
795.77	4.734
795.94	4.771
796.12	4.913
796.30	4.829
796.48	4.832
796.65	4.874
796.83	4.845
797.01	4.771
797.18	4.759
797.36	4.836
797.54	4.789
797.71	4.761
797.89	4.851
798.07	4.778
798.24	4.948
798.42	4.846
798.60	4.906
798.77	4.999
798.95	5.006
799.13	5.074
799.30	4.941
799.48	5.004
799.66	4.988
799.83	5.034
800.01	5.014
800.18	4.857
800.36	4.998
800.54	4.941
800.71	4.869
800.89	4.900
801.07	4.881
801.24	5.033
801.42	5.111
801.60	5.248
801.77	5.067
801.95	5.035
802.12	5.126
802.30	5.121
802.48	5.207
802.65	5.284
802.83	5.314
803.01	5.363
803.18	5.372
803.36	5.346
803.53	5.271
803.71	5.392
803.89	5.432
804.06	5.504
804.24	5.575
804.41	5.655
804.59	5.573
804.77	5.673
804.94	5.719
805.12	5.639
805.29	5.616
805.47	5.536
805.65	5.539
805.82	5.699
806.00	5.692
806.17	5.554
806.35	5.467
806.53	5.598
806.70	5.527
806.88	5.436
807.05	5.479
807.23	5.438
807.40	5.478
807.58	5.493
807.76	5.482
807.93	5.448
808.11	5.540
808.28	5.486
808.46	5.426
808.63	5.387
808.81	5.488
808.99	5.471
809.16	5.492
809.34	5.505
809.51	5.498
809.69	5.639
809.86	5.651
810.04	5.580
810.21	5.615
810.39	5.740
810.57	5.693
810.74	5.635
810.92	5.667
811.09	5.599
811.27	5.609
811.44	5.645
811.62	5.611
811.79	5.689
811.97	5.686
812.14	5.631
812.32	5.474
812.49	5.519
812.67	5.544
812.84	5.424
813.02	5.477
813.19	5.480
813.37	5.420
813.55	5.195
813.72	5.103
813.90	5.193
814.07	5.164
814.25	5.200
814.42	5.340
814.60	5.349
814.77	5.377
814.95	5.563
815.12	5.557
815.30	5.633
815.47	5.741
815.65	5.821
815.82	5.877
816.00	5.990
816.17	6.046
816.35	5.899
816.52	6.022
816.69	6.288
816.87	6.176
817.04	6.143
817.22	6.042
817.39	6.185
817.57	6.200
817.74	6.226
817.92	6.307
818.09	6.264
818.27	6.322
818.44	6.124
818.62	5.916
818.79	5.834
818.97	5.958
819.14	6.068
819.32	5.935
819.49	5.896
819.66	5.882
819.84	5.834
820.01	5.840
820.19	5.829
820.36	5.821
820.54	5.898
820.71	6.008
820.89	5.968
821.06	5.951
821.23	5.984
821.41	5.986
821.58	5.929
821.76	5.889
821.93	5.865
822.11	5.818
822.28	5.795
822.45	5.769
822.63	5.755
822.80	5.737
822.98	5.727
823.15	5.720
823.33	5.717
823.50	5.737
823.67	5.742
823.85	5.753
824.02	5.802
824.20	5.837
824.37	5.898
824.54	5.914
824.72	5.989
824.89	6.038
825.07	6.074
825.24	6.119
825.41	6.142
825.59	6.192
825.76	6.226
825.94	6.274
826.11	6.297
826.28	6.286
826.46	6.319
826.63	6.256
826.80	6.272
826.98	6.264
827.15	6.239
827.33	6.230
827.50	6.212
827.67	6.211
827.85	6.157
828.02	6.195
828.19	6.203
828.37	6.198
828.54	6.245
828.72	6.265
828.89	6.292
829.06	6.294
829.24	6.328
829.41	6.360
829.58	6.364
829.76	6.419
829.93	6.462
830.10	6.512
830.28	6.565
830.45	6.623
830.62	6.653
830.80	6.706
830.97	6.786
831.14	6.771
831.32	6.899
831.49	6.940
831.66	6.937
831.84	6.917
832.01	6.835
832.18	6.893
832.36	6.798
832.53	6.752
832.70	6.703
832.88	6.697
833.05	6.705
833.22	6.594
833.40	6.565
833.57	6.582
833.74	6.510
833.91	6.527
834.09	6.453
834.26	6.452
834.43	6.452
834.61	6.393
834.78	6.403
834.95	6.389
835.13	6.393
835.30	6.389
835.47	6.355
835.64	6.385
835.82	6.384
835.99	6.424
836.16	6.510
836.34	6.624
836.51	6.790
836.68	6.747
836.85	6.713
837.03	6.801
837.20	6.900
837.37	6.900
837.54	6.864
837.72	6.813
837.89	6.767
838.06	6.535
838.24	6.264
838.41	6.217
838.58	6.271
838.75	6.281
838.93	6.377
839.10	6.424
839.27	6.663
839.44	6.757
839.62	6.867
839.79	7.033
839.96	7.143
840.13	7.171
840.31	7.104
840.48	7.115
840.65	7.290
840.82	7.114
840.99	7.170
841.17	7.044
841.34	7.114
841.51	7.119
841.68	7.060
841.86	7.003
842.03	7.074
842.20	7.226
842.37	7.335
842.55	7.194
842.72	7.149
842.89	6.849
843.06	6.928
843.23	6.653
843.41	6.592
843.58	6.563
843.75	6.775
843.92	6.796
844.09	6.624
844.27	6.392
844.44	6.422
844.61	6.463
844.78	6.618
844.95	6.238
845.13	6.591
845.30	6.661
845.47	6.629
845.64	6.664
845.81	6.797
845.98	6.888
846.16	6.926
846.33	7.189
846.50	7.570
846.67	7.792
846.84	8.330
847.02	8.355
847.19	8.465
847.36	8.467
847.53	8.074
847.70	7.718
847.87	7.411
848.04	7.441
848.22	7.159
848.39	6.730
848.56	6.483
848.73	6.136
848.90	6.011
849.07	6.014
849.25	5.815
849.42	6.459
849.59	6.440
849.76	6.744
849.93	7.307
850.10	7.153
850.27	7.292
850.45	7.654
850.62	7.920
850.79	7.860
850.96	7.524
851.13	7.872
851.30	7.681
851.47	7.895
851.64	7.828
851.82	7.128
851.99	7.587
852.16	7.757
852.33	7.401
852.50	7.374
852.67	7.645
852.84	7.783
853.01	7.583
853.18	7.388
853.35	7.333
853.53	7.389
853.70	7.602
853.87	7.333
854.04	7.390
854.21	7.791
854.38	7.627
854.55	7.615
854.72	7.593
854.89	7.496
855.06	7.801
855.23	7.935
855.41	7.879
855.58	7.798
855.75	7.606
855.92	7.411
856.09	7.256
856.26	7.447
856.43	7.116
856.60	7.021
856.77	7.206
856.94	6.744
857.11	6.769
857.28	6.677
857.45	6.630
857.62	6.791
857.80	6.236
857.97	5.940
858.14	5.704
858.31	6.028
858.48	6.506
858.65	6.762
858.82	7.104
858.99	6.823
859.16	6.819
859.33	7.223
859.50	7.394
859.67	8.173
859.84	8.426
860.01	8.602
860.18	8.423
860.35	8.335
860.52	8.217
860.69	7.831
860.86	8.332
861.03	8.306
861.20	7.966
861.37	7.903
861.54	7.999
861.71	7.531
861.88	7.839
862.05	8.004
862.22	7.909
862.39	8.103
862.56	8.061
862.73	7.825
862.90	8.094
863.07	7.972
863.24	7.642
863.41	7.109
863.58	7.611
863.75	7.288
863.92	7.110
864.09	7.038
864.26	6.759
864.43	7.124
864.60	7.362
864.77	7.208
864.94	7.754
865.11	8.207
865.28	8.626
865.45	8.701
865.62	8.786
865.79	8.914
865.96	8.614
866.13	8.468
866.30	8.583
866.47	8.338
866.64	8.149
866.81	7.938
866.98	7.925
867.15	7.767
867.32	7.553
867.49	7.721
867.66	7.792
867.82	7.745
867.99	8.184
868.16	8.187
868.33	8.192
868.50	8.367
868.67	8.699
868.84	8.661
869.01	8.911
869.18	8.982
869.35	8.886
869.52	8.862
869.69	9.237
869.86	9.481
870.03	9.382
870.19	9.191
870.36	9.318
870.53	8.544
870.70	8.426
870.87	8.549
871.04	8.422
871.21	8.234
871.38	8.463
871.55	8.409
871.72	8.079
871.89	8.082
872.05	8.214
872.22	7.840
872.39	7.769
872.56	7.761
872.73	7.352
872.90	7.518
873.07	7.600
873.24	7.150
873.41	7.280
873.57	7.427
873.74	7.501
873.91	7.579
874.08	7.707
874.25	8.283
874.42	8.237
874.59	8.750
874.76	8.847
874.92	8.886
875.09	9.126
875.26	9.465
875.43	9.401
875.60	9.226
875.77	9.094
875.94	9.321
876.11	9.204
876.27	9.354
876.44	9.188
876.61	9.427
876.78	9.661
876.95	9.546
877.12	9.150
877.28	9.022
877.45	9.334
877.62	9.449
877.79	9.556
877.96	9.675
878.13	9.661
878.29	9.705
878.46	9.622
878.63	9.476
878.80	9.502
878.97	9.501
879.14	9.708
879.30	9.596
879.47	9.522
879.64	9.474
879.81	9.467
879.98	9.405
880.14	9.267
880.31	9.171
880.48	9.254
880.65	9.360
880.82	9.259
880.98	9.169
881.15	9.159
881.32	9.153
881.49	9.139
881.66	9.042
881.82	8.971
881.99	8.945
882.16	8.940
882.33	8.919
882.50	8.898
882.66	8.932
882.83	8.936
883.00	8.936
883.17	8.957
883.33	8.959
883.50	9.021
883.67	9.107
883.84	9.189
884.01	9.239
884.17	9.272
884.34	9.295
884.51	9.344
884.68	9.360
884.84	9.388
885.01	9.366
885.18	9.377
885.35	9.446
885.51	9.414
885.68	9.342
885.85	9.419
886.02	9.390
886.18	9.475
886.35	9.404
886.52	9.432
886.69	9.386
886.85	9.571
887.02	9.608
887.19	9.493
887.35	9.608
887.52	9.565
887.69	9.472
887.86	9.656
888.02	9.533
888.19	9.669
888.36	7.791
888.53	11.075
888.69	10.831
888.86	9.122
889.03	11.130
>>>>>End Spectral Data<<<<<
