OOIBase32 Version 2.0.6.5 Data File
++++++++++++++++++++++++++++++++++++
Date: 11-17-2016, 11:08:58
User: Valued Ocean Optics Customer
Spectrometer Serial Number: USB4C01507
Spectrometer Channel: Master
Integration Time (msec): 49
Spectra Averaged: 25
Boxcar Smoothing: 5
Correct for Electrical Dark: Enabled
Time Normalized: Disabled
Dual-beam Reference: Disabled
Reference Channel: Master
Temperature: Not acquired
Spectrometer Type: S4000
ADC Type: USB4000
Number of Pixels in File: 3648
Graph Title: 
>>>>>Begin Spectral Data<<<<<
178.53	1661.567
178.74	2208.514
178.96	50.098
179.18	-21.648
179.39	448.913
179.61	-34.782
179.82	178.404
180.04	86.129
180.25	142.960
180.47	-190.514
180.69	0.534
180.90	802.556
181.12	49.359
181.33	305.305
181.55	15.655
181.76	-5998.427
181.98	-0.365
182.20	-142.418
182.41	25.062
182.63	256.342
182.84	55.516
183.06	52.907
183.27	50.456
183.49	50.162
183.71	57.300
183.92	52.590
184.14	45.207
184.35	48.130
184.57	48.735
184.78	31.675
185.00	37.001
185.21	40.250
185.43	49.039
185.65	45.872
185.86	54.553
186.08	52.389
186.29	53.048
186.51	59.074
186.72	53.769
186.94	53.462
187.15	64.934
187.37	67.247
187.58	64.540
187.80	52.462
188.02	46.457
188.23	43.782
188.45	42.896
188.66	43.103
188.88	41.245
189.09	45.748
189.31	59.461
189.52	48.092
189.74	46.938
189.95	56.689
190.17	61.700
190.38	75.875
190.60	80.828
190.82	81.046
191.03	72.285
191.25	64.657
191.46	66.152
191.68	56.678
191.89	62.093
192.11	53.288
192.32	43.073
192.54	42.667
192.75	38.705
192.97	32.267
193.18	33.719
193.40	39.376
193.61	41.566
193.83	45.519
194.04	41.429
194.26	42.895
194.48	45.983
194.69	54.253
194.91	50.460
195.12	49.762
195.34	50.747
195.55	45.859
195.77	37.382
195.98	43.910
196.20	37.645
196.41	30.710
196.63	23.343
196.84	25.636
197.06	26.066
197.27	28.262
197.49	26.346
197.70	28.012
197.92	32.463
198.13	40.378
198.35	33.869
198.56	35.110
198.78	35.630
198.99	37.918
199.21	35.147
199.42	32.555
199.64	37.258
199.85	38.751
200.07	34.739
200.28	33.175
200.50	27.828
200.71	33.883
200.93	36.857
201.14	38.724
201.36	43.648
201.57	44.846
201.79	41.744
202.00	37.520
202.22	40.491
202.43	40.339
202.65	40.412
202.86	43.184
203.08	39.741
203.29	36.648
203.51	37.352
203.72	35.411
203.94	33.671
204.15	36.199
204.37	38.868
204.58	34.108
204.80	36.417
205.01	35.982
205.22	34.860
205.44	33.173
205.65	30.859
205.87	28.141
206.08	29.180
206.30	29.050
206.51	28.321
206.73	22.619
206.94	20.682
207.16	18.452
207.37	18.818
207.59	18.266
207.80	19.098
208.02	20.504
208.23	22.403
208.45	20.382
208.66	19.006
208.88	20.489
209.09	23.529
209.30	28.419
209.52	24.097
209.73	21.657
209.95	25.093
210.16	25.392
210.38	28.079
210.59	26.900
210.81	27.570
211.02	27.322
211.24	24.539
211.45	22.934
211.66	21.345
211.88	22.830
212.09	20.405
212.31	18.510
212.52	18.102
212.74	14.600
212.95	14.402
213.17	12.760
213.38	16.497
213.60	16.363
213.81	17.380
214.02	17.139
214.24	18.723
214.45	20.470
214.67	17.139
214.88	17.615
215.10	17.645
215.31	17.270
215.53	17.410
215.74	15.259
215.95	16.055
216.17	12.745
216.38	12.292
216.60	12.065
216.81	13.135
217.03	15.845
217.24	15.509
217.45	17.382
217.67	17.382
217.88	16.345
218.10	16.524
218.31	16.357
218.53	18.091
218.74	16.326
218.95	12.979
219.17	11.093
219.38	10.526
219.60	11.644
219.81	11.745
220.03	12.819
220.24	13.265
220.45	12.068
220.67	11.772
220.88	12.000
221.10	13.944
221.31	14.421
221.53	14.641
221.74	13.651
221.95	12.450
222.17	10.564
222.38	10.480
222.60	10.774
222.81	10.097
223.02	9.950
223.24	8.702
223.45	7.730
223.67	7.815
223.88	7.446
224.09	8.121
224.31	8.469
224.52	9.565
224.74	8.172
224.95	7.865
225.16	8.098
225.38	7.711
225.59	8.297
225.81	7.650
226.02	7.322
226.23	7.082
226.45	6.862
226.66	6.181
226.88	6.074
227.09	6.607
227.30	6.004
227.52	5.931
227.73	5.560
227.95	5.344
228.16	5.283
228.37	5.206
228.59	5.263
228.80	5.165
229.02	5.103
229.23	5.015
229.44	4.894
229.66	4.950
229.87	4.936
230.08	5.051
230.30	5.137
230.51	5.297
230.73	5.427
230.94	5.481
231.15	5.329
231.37	5.559
231.58	5.573
231.80	5.724
232.01	5.928
232.22	5.838
232.44	5.931
232.65	5.905
232.86	5.751
233.08	5.492
233.29	5.318
233.51	5.704
233.72	5.627
233.93	5.648
234.15	5.435
234.36	5.256
234.57	5.351
234.79	5.419
235.00	5.445
235.21	5.816
235.43	6.110
235.64	5.957
235.86	5.975
236.07	5.943
236.28	5.722
236.50	5.770
236.71	6.008
236.92	6.081
237.14	5.985
237.35	6.063
237.56	5.794
237.78	5.965
237.99	6.232
238.20	6.331
238.42	6.515
238.63	6.519
238.84	6.479
239.06	6.372
239.27	6.074
239.48	6.014
239.70	5.948
239.91	5.717
240.13	5.453
240.34	5.457
240.55	5.431
240.77	5.400
240.98	5.395
241.19	5.414
241.41	5.130
241.62	5.071
241.83	4.958
242.05	4.935
242.26	5.032
242.47	5.041
242.69	4.943
242.90	4.887
243.11	4.862
243.33	4.842
243.54	4.804
243.75	5.085
243.97	5.113
244.18	5.359
244.39	5.413
244.61	5.225
244.82	5.307
245.03	5.434
245.24	5.445
245.46	5.303
245.67	5.292
245.88	5.255
246.10	5.050
246.31	5.066
246.52	4.900
246.74	4.840
246.95	4.842
247.16	4.839
247.38	4.810
247.59	4.826
247.80	4.839
248.02	4.828
248.23	4.793
248.44	4.856
248.66	4.814
248.87	4.923
249.08	5.025
249.29	5.181
249.51	5.262
249.72	5.408
249.93	5.477
250.15	5.634
250.36	5.708
250.57	5.706
250.79	5.822
251.00	5.874
251.21	5.770
251.42	5.597
251.64	5.400
251.85	5.379
252.06	5.451
252.28	5.258
252.49	5.158
252.70	5.162
252.91	5.246
253.13	5.148
253.34	5.100
253.55	5.160
253.77	5.213
253.98	5.478
254.19	5.301
254.40	5.115
254.62	5.285
254.83	5.165
255.04	5.111
255.26	5.093
255.47	4.965
255.68	4.972
255.89	5.040
256.11	5.116
256.32	4.859
256.53	5.033
256.75	5.092
256.96	5.178
257.17	5.408
257.38	5.497
257.60	5.496
257.81	5.481
258.02	5.405
258.23	5.175
258.45	5.061
258.66	5.051
258.87	4.952
259.09	4.803
259.30	4.729
259.51	4.612
259.72	4.572
259.94	4.511
260.15	4.488
260.36	4.522
260.57	4.548
260.79	4.561
261.00	4.546
261.21	4.495
261.42	4.586
261.64	4.586
261.85	4.685
262.06	4.742
262.27	4.929
262.49	5.005
262.70	5.036
262.91	5.070
263.12	5.009
263.34	4.935
263.55	4.924
263.76	4.795
263.97	4.915
264.19	5.060
264.40	4.977
264.61	4.923
264.82	4.970
265.04	4.907
265.25	4.824
265.46	4.872
265.67	4.882
265.88	4.960
266.10	4.830
266.31	4.742
266.52	4.675
266.73	4.772
266.95	4.696
267.16	4.625
267.37	4.587
267.58	4.560
267.80	4.562
268.01	4.590
268.22	4.507
268.43	4.636
268.64	4.667
268.86	4.631
269.07	4.557
269.28	4.480
269.49	4.506
269.71	4.465
269.92	4.393
270.13	4.494
270.34	4.451
270.55	4.600
270.77	4.700
270.98	4.617
271.19	4.619
271.40	4.547
271.61	4.546
271.83	4.567
272.04	4.511
272.25	4.611
272.46	4.516
272.68	4.555
272.89	4.463
273.10	4.411
273.31	4.436
273.52	4.455
273.74	4.469
273.95	4.506
274.16	4.587
274.37	4.744
274.58	4.774
274.80	4.828
275.01	4.788
275.22	4.841
275.43	4.805
275.64	4.838
275.86	4.798
276.07	4.757
276.28	4.865
276.49	4.800
276.70	4.730
276.91	4.702
277.13	4.640
277.34	4.632
277.55	4.680
277.76	4.669
277.97	4.586
278.19	4.527
278.40	4.642
278.61	4.495
278.82	4.440
279.03	4.372
279.24	4.391
279.46	4.390
279.67	4.389
279.88	4.272
280.09	4.349
280.30	4.409
280.52	4.509
280.73	4.467
280.94	4.570
281.15	4.500
281.36	4.609
281.57	4.621
281.79	4.681
282.00	4.722
282.21	4.722
282.42	4.642
282.63	4.696
282.84	4.653
283.06	4.714
283.27	4.716
283.48	4.731
283.69	4.622
283.90	4.539
284.11	4.486
284.32	4.444
284.54	4.467
284.75	4.396
284.96	4.273
285.17	4.316
285.38	4.284
285.59	4.276
285.81	4.308
286.02	4.418
286.23	4.442
286.44	4.547
286.65	4.627
286.86	4.637
287.07	4.667
287.29	4.701
287.50	4.709
287.71	4.753
287.92	4.807
288.13	4.815
288.34	4.834
288.55	4.959
288.77	4.917
288.98	4.843
289.19	4.920
289.40	5.055
289.61	5.188
289.82	5.197
290.03	5.159
290.24	5.209
290.46	5.283
290.67	5.269
290.88	5.316
291.09	5.274
291.30	5.343
291.51	5.417
291.72	5.506
291.93	5.556
292.15	5.578
292.36	5.832
292.57	5.889
292.78	5.888
292.99	5.950
293.20	6.013
293.41	6.022
293.62	6.076
293.84	6.073
294.05	5.965
294.26	5.910
294.47	5.993
294.68	5.927
294.89	6.004
295.10	6.116
295.31	6.181
295.52	6.086
295.73	6.123
295.95	6.198
296.16	6.264
296.37	6.388
296.58	6.503
296.79	6.521
297.00	6.519
297.21	6.445
297.42	6.382
297.63	6.378
297.84	6.421
298.06	6.480
298.27	6.488
298.48	6.581
298.69	6.555
298.90	6.564
299.11	6.697
299.32	6.754
299.53	6.854
299.74	6.951
299.95	7.048
300.16	7.041
300.38	7.166
300.59	7.096
300.80	7.008
301.01	6.998
301.22	6.908
301.43	6.854
301.64	6.808
301.85	6.779
302.06	6.813
302.27	6.800
302.48	6.916
302.69	6.803
302.91	6.934
303.12	7.006
303.33	7.123
303.54	7.247
303.75	7.207
303.96	7.276
304.17	7.293
304.38	7.340
304.59	7.404
304.80	7.422
305.01	7.487
305.22	7.488
305.43	7.536
305.64	7.510
305.85	7.549
306.06	7.629
306.28	7.731
306.49	7.807
306.70	7.746
306.91	7.740
307.12	7.726
307.33	7.706
307.54	7.797
307.75	7.793
307.96	7.848
308.17	7.814
308.38	7.871
308.59	7.870
308.80	7.919
309.01	8.096
309.22	8.167
309.43	8.228
309.64	8.374
309.85	8.383
310.06	8.447
310.27	8.586
310.48	8.664
310.70	8.694
310.91	8.746
311.12	8.765
311.33	8.750
311.54	8.763
311.75	8.794
311.96	8.859
312.17	8.875
312.38	8.891
312.59	8.867
312.80	8.930
313.01	9.005
313.22	9.048
313.43	9.121
313.64	9.189
313.85	9.257
314.06	9.331
314.27	9.328
314.48	9.513
314.69	9.637
314.90	9.768
315.11	9.817
315.32	9.868
315.53	9.891
315.74	9.897
315.95	10.030
316.16	10.124
316.37	10.145
316.58	10.195
316.79	10.140
317.00	10.143
317.21	10.044
317.42	10.083
317.63	10.111
317.84	10.212
318.05	10.220
318.26	10.204
318.47	10.159
318.68	10.256
318.89	10.347
319.10	10.425
319.31	10.459
319.52	10.620
319.73	10.705
319.94	10.765
320.15	10.848
320.36	11.046
320.57	11.078
320.78	11.184
320.99	11.190
321.20	11.261
321.41	11.338
321.62	11.379
321.83	11.404
322.04	11.426
322.25	11.487
322.46	11.522
322.67	11.589
322.88	11.665
323.09	11.715
323.30	11.745
323.51	11.726
323.72	11.789
323.93	11.882
324.14	11.989
324.35	12.074
324.56	12.159
324.77	12.140
324.98	12.149
325.19	12.238
325.40	12.347
325.61	12.510
325.82	12.598
326.03	12.651
326.24	12.720
326.45	12.762
326.65	12.795
326.86	12.816
327.07	12.930
327.28	12.995
327.49	13.014
327.70	12.997
327.91	13.033
328.12	13.084
328.33	13.134
328.54	13.207
328.75	13.315
328.96	13.437
329.17	13.542
329.38	13.549
329.59	13.583
329.80	13.675
330.01	13.782
330.22	13.824
330.43	13.886
330.64	13.931
330.85	13.981
331.05	13.981
331.26	14.009
331.47	14.029
331.68	14.131
331.89	14.230
332.10	14.302
332.31	14.348
332.52	14.414
332.73	14.455
332.94	14.546
333.15	14.620
333.36	14.738
333.57	14.828
333.78	14.924
333.99	14.960
334.19	15.014
334.40	15.074
334.61	15.225
334.82	15.335
335.03	15.415
335.24	15.492
335.45	15.552
335.66	15.585
335.87	15.638
336.08	15.682
336.29	15.790
336.50	15.844
336.71	15.948
336.91	15.981
337.12	15.927
337.33	16.013
337.54	16.066
337.75	16.093
337.96	16.054
338.17	16.169
338.38	16.230
338.59	16.297
338.80	16.292
339.01	16.313
339.21	16.356
339.42	16.461
339.63	16.486
339.84	16.546
340.05	16.607
340.26	16.687
340.47	16.623
340.68	16.697
340.89	16.716
341.10	16.805
341.30	16.877
341.51	16.867
341.72	16.977
341.93	17.039
342.14	17.071
342.35	17.165
342.56	17.226
342.77	17.303
342.98	17.284
343.18	17.333
343.39	17.436
343.60	17.459
343.81	17.541
344.02	17.580
344.23	17.658
344.44	17.700
344.65	17.740
344.85	17.799
345.06	17.878
345.27	17.936
345.48	17.981
345.69	18.063
345.90	18.170
346.11	18.255
346.32	18.264
346.52	18.289
346.73	18.364
346.94	18.424
347.15	18.511
347.36	18.530
347.57	18.601
347.78	18.709
347.98	18.760
348.19	18.765
348.40	18.807
348.61	18.894
348.82	18.977
349.03	19.054
349.24	19.133
349.44	19.198
349.65	19.303
349.86	19.398
350.07	19.468
350.28	19.478
350.49	19.532
350.70	19.559
350.90	19.581
351.11	19.595
351.32	19.612
351.53	19.657
351.74	19.713
351.95	19.695
352.15	19.776
352.36	19.787
352.57	19.820
352.78	19.906
352.99	20.016
353.20	20.148
353.40	20.242
353.61	20.280
353.82	20.302
354.03	20.393
354.24	20.517
354.45	20.564
354.65	20.661
354.86	20.761
355.07	20.802
355.28	20.873
355.49	20.932
355.70	20.992
355.90	21.064
356.11	21.128
356.32	21.120
356.53	21.190
356.74	21.237
356.94	21.281
357.15	21.313
357.36	21.364
357.57	21.380
357.78	21.415
357.99	21.413
358.19	21.510
358.40	21.540
358.61	21.603
358.82	21.703
359.03	21.740
359.23	21.834
359.44	21.958
359.65	22.032
359.86	22.131
360.07	22.152
360.27	22.293
360.48	22.390
360.69	22.521
360.90	22.639
361.11	22.754
361.31	22.849
361.52	22.897
361.73	22.956
361.94	23.007
362.15	23.010
362.35	23.068
362.56	23.128
362.77	23.157
362.98	23.240
363.18	23.244
363.39	23.190
363.60	23.263
363.81	23.297
364.02	23.317
364.22	23.408
364.43	23.490
364.64	23.590
364.85	23.634
365.05	23.701
365.26	23.699
365.47	23.807
365.68	23.861
365.89	23.835
366.09	23.896
366.30	23.928
366.51	23.950
366.72	24.010
366.92	24.094
367.13	24.149
367.34	24.178
367.55	24.232
367.75	24.284
367.96	24.382
368.17	24.487
368.38	24.556
368.58	24.582
368.79	24.624
369.00	24.653
369.21	24.652
369.41	24.693
369.62	24.734
369.83	24.775
370.04	24.830
370.24	24.868
370.45	24.899
370.66	24.949
370.87	25.005
371.07	25.034
371.28	25.109
371.49	25.179
371.70	25.244
371.90	25.268
372.11	25.334
372.32	25.374
372.53	25.424
372.73	25.550
372.94	25.554
373.15	25.667
373.36	25.766
373.56	25.838
373.77	25.901
373.98	25.937
374.19	26.034
374.39	26.095
374.60	26.132
374.81	26.170
375.01	26.208
375.22	26.320
375.43	26.379
375.64	26.456
375.84	26.503
376.05	26.563
376.26	26.618
376.46	26.634
376.67	26.675
376.88	26.748
377.09	26.816
377.29	26.847
377.50	26.896
377.71	26.931
377.91	26.976
378.12	27.046
378.33	27.130
378.54	27.173
378.74	27.283
378.95	27.346
379.16	27.432
379.36	27.469
379.57	27.528
379.78	27.564
379.99	27.656
380.19	27.654
380.40	27.657
380.61	27.674
380.81	27.758
381.02	27.787
381.23	27.846
381.43	27.856
381.64	27.952
381.85	28.019
382.05	28.109
382.26	28.164
382.47	28.272
382.67	28.362
382.88	28.439
383.09	28.515
383.30	28.590
383.50	28.658
383.71	28.742
383.92	28.787
384.12	28.824
384.33	28.843
384.54	28.859
384.74	28.922
384.95	28.983
385.16	29.053
385.36	29.085
385.57	29.126
385.78	29.182
385.98	29.238
386.19	29.309
386.40	29.370
386.60	29.478
386.81	29.561
387.02	29.625
387.22	29.685
387.43	29.741
387.64	29.809
387.84	29.884
388.05	29.950
388.26	30.001
388.46	30.038
388.67	30.134
388.88	30.165
389.08	30.233
389.29	30.272
389.49	30.309
389.70	30.319
389.91	30.361
390.11	30.417
390.32	30.470
390.53	30.557
390.73	30.671
390.94	30.721
391.15	30.788
391.35	30.838
391.56	30.940
391.77	31.064
391.97	31.178
392.18	31.258
392.38	31.361
392.59	31.469
392.80	31.535
393.00	31.540
393.21	31.621
393.42	31.708
393.62	31.791
393.83	31.848
394.04	31.855
394.24	31.879
394.45	31.955
394.65	31.982
394.86	32.027
395.07	32.059
395.27	32.118
395.48	32.133
395.68	32.203
395.89	32.253
396.10	32.293
396.30	32.360
396.51	32.459
396.72	32.495
396.92	32.572
397.13	32.637
397.33	32.740
397.54	32.809
397.75	32.900
397.95	32.935
398.16	33.021
398.36	33.075
398.57	33.170
398.78	33.201
398.98	33.278
399.19	33.336
399.39	33.369
399.60	33.393
399.81	33.473
400.01	33.530
400.22	33.602
400.42	33.673
400.63	33.743
400.84	33.799
401.04	33.869
401.25	33.918
401.45	33.967
401.66	34.071
401.86	34.153
402.07	34.222
402.28	34.325
402.48	34.382
402.69	34.429
402.89	34.503
403.10	34.599
403.31	34.691
403.51	34.788
403.72	34.871
403.92	34.931
404.13	35.002
404.33	35.076
404.54	35.132
404.75	35.187
404.95	35.271
405.16	35.358
405.36	35.415
405.57	35.454
405.77	35.527
405.98	35.576
406.18	35.610
406.39	35.633
406.60	35.653
406.80	35.684
407.01	35.770
407.21	35.791
407.42	35.799
407.62	35.813
407.83	35.853
408.03	35.881
408.24	35.945
408.45	35.990
408.65	36.120
408.86	36.207
409.06	36.303
409.27	36.346
409.47	36.416
409.68	36.494
409.88	36.590
410.09	36.665
410.29	36.719
410.50	36.765
410.71	36.826
410.91	36.830
411.12	36.846
411.32	36.876
411.53	36.918
411.73	36.965
411.94	37.041
412.14	37.085
412.35	37.131
412.55	37.195
412.76	37.286
412.96	37.349
413.17	37.405
413.37	37.502
413.58	37.567
413.78	37.661
413.99	37.753
414.19	37.830
414.40	37.899
414.61	37.980
414.81	38.042
415.02	38.061
415.22	38.139
415.43	38.253
415.63	38.332
415.84	38.422
416.04	38.479
416.25	38.539
416.45	38.603
416.66	38.691
416.86	38.756
417.07	38.805
417.27	38.867
417.48	38.914
417.68	38.938
417.89	38.974
418.09	39.031
418.30	39.104
418.50	39.146
418.71	39.216
418.91	39.267
419.12	39.321
419.32	39.408
419.53	39.533
419.73	39.643
419.94	39.735
420.14	39.802
420.34	39.802
420.55	39.813
420.75	39.854
420.96	39.884
421.16	39.895
421.37	39.929
421.57	39.989
421.78	39.996
421.98	40.035
422.19	40.086
422.39	40.145
422.60	40.268
422.80	40.360
423.01	40.434
423.21	40.468
423.42	40.508
423.62	40.543
423.83	40.547
424.03	40.552
424.23	40.552
424.44	40.549
424.64	40.581
424.85	40.594
425.05	40.628
425.26	40.679
425.46	40.755
425.67	40.827
425.87	40.898
426.08	40.974
426.28	41.042
426.48	41.112
426.69	41.187
426.89	41.242
427.10	41.300
427.30	41.358
427.51	41.385
427.71	41.373
427.92	41.396
428.12	41.420
428.32	41.424
428.53	41.495
428.73	41.549
428.94	41.591
429.14	41.611
429.35	41.634
429.55	41.670
429.76	41.725
429.96	41.773
430.16	41.863
430.37	41.922
430.57	41.988
430.78	42.057
430.98	42.110
431.19	42.161
431.39	42.243
431.59	42.263
431.80	42.306
432.00	42.290
432.21	42.303
432.41	42.306
432.61	42.324
432.82	42.333
433.02	42.352
433.23	42.370
433.43	42.394
433.64	42.402
433.84	42.457
434.04	42.491
434.25	42.577
434.45	42.662
434.66	42.747
434.86	42.817
435.06	42.897
435.27	42.952
435.47	43.034
435.68	43.078
435.88	43.146
436.08	43.193
436.29	43.230
436.49	43.262
436.70	43.279
436.90	43.294
437.10	43.370
437.31	43.420
437.51	43.474
437.71	43.510
437.92	43.593
438.12	43.619
438.33	43.674
438.53	43.717
438.73	43.737
438.94	43.792
439.14	43.848
439.35	43.904
439.55	43.960
439.75	44.018
439.96	44.077
440.16	44.104
440.36	44.137
440.57	44.148
440.77	44.192
440.97	44.259
441.18	44.310
441.38	44.332
441.59	44.362
441.79	44.382
441.99	44.385
442.20	44.400
442.40	44.443
442.60	44.515
442.81	44.602
443.01	44.659
443.21	44.699
443.42	44.718
443.62	44.788
443.83	44.825
444.03	44.885
444.23	44.910
444.44	44.946
444.64	44.980
444.84	45.009
445.05	45.030
445.25	45.034
445.45	45.045
445.66	45.082
445.86	45.082
446.06	45.081
446.27	45.078
446.47	45.111
446.67	45.143
446.88	45.168
447.08	45.194
447.28	45.233
447.49	45.285
447.69	45.331
447.89	45.351
448.10	45.432
448.30	45.482
448.50	45.507
448.71	45.518
448.91	45.504
449.11	45.497
449.32	45.537
449.52	45.535
449.72	45.555
449.93	45.559
450.13	45.614
450.33	45.608
450.53	45.624
450.74	45.701
450.94	45.777
451.14	45.858
451.35	45.927
451.55	45.948
451.75	45.995
451.96	46.004
452.16	46.055
452.36	46.066
452.57	46.104
452.77	46.130
452.97	46.145
453.17	46.168
453.38	46.191
453.58	46.208
453.78	46.199
453.99	46.196
454.19	46.261
454.39	46.329
454.59	46.388
454.80	46.390
455.00	46.422
455.20	46.464
455.41	46.494
455.61	46.525
455.81	46.598
456.01	46.682
456.22	46.734
456.42	46.763
456.62	46.777
456.83	46.790
457.03	46.854
457.23	46.896
457.43	46.942
457.64	46.978
457.84	47.024
458.04	47.094
458.25	47.181
458.45	47.291
458.65	47.322
458.85	47.365
459.06	47.363
459.26	47.328
459.46	47.323
459.66	47.306
459.87	47.285
460.07	47.294
460.27	47.268
460.47	47.223
460.68	47.173
460.88	47.157
461.08	47.129
461.28	47.154
461.49	47.196
461.69	47.244
461.89	47.272
462.09	47.338
462.30	47.350
462.50	47.400
462.70	47.455
462.90	47.505
463.11	47.537
463.31	47.584
463.51	47.609
463.71	47.689
463.92	47.733
464.12	47.807
464.32	47.838
464.52	47.880
464.72	47.879
464.93	47.904
465.13	47.936
465.33	47.987
465.53	47.964
465.74	47.969
465.94	47.953
466.14	47.907
466.34	47.880
466.54	47.838
466.75	47.827
466.95	47.815
467.15	47.818
467.35	47.802
467.56	47.813
467.76	47.866
467.96	47.905
468.16	47.944
468.36	47.999
468.57	48.053
468.77	48.124
468.97	48.170
469.17	48.204
469.37	48.242
469.58	48.297
469.78	48.315
469.98	48.333
470.18	48.379
470.38	48.425
470.59	48.490
470.79	48.565
470.99	48.614
471.19	48.656
471.39	48.721
471.60	48.796
471.80	48.813
472.00	48.861
472.20	48.898
472.40	48.887
472.61	48.884
472.81	48.887
473.01	48.846
473.21	48.862
473.41	48.865
473.61	48.873
473.82	48.875
474.02	48.918
474.22	48.926
474.42	48.961
474.62	49.052
474.82	49.133
475.03	49.223
475.23	49.275
475.43	49.343
475.63	49.404
475.83	49.475
476.03	49.486
476.24	49.482
476.44	49.532
476.64	49.550
476.84	49.536
477.04	49.524
477.24	49.504
477.45	49.521
477.65	49.544
477.85	49.573
478.05	49.587
478.25	49.620
478.45	49.664
478.65	49.705
478.86	49.725
479.06	49.759
479.26	49.808
479.46	49.854
479.66	49.916
479.86	49.929
480.06	49.973
480.27	50.004
480.47	50.051
480.67	50.106
480.87	50.109
481.07	50.171
481.27	50.261
481.47	50.319
481.68	50.397
481.88	50.529
482.08	50.741
482.28	51.016
482.48	51.297
482.68	51.510
482.88	51.873
483.08	52.565
483.29	52.894
483.49	52.616
483.69	52.353
483.89	52.205
484.09	52.095
484.29	51.985
484.49	51.871
484.69	51.768
484.89	51.672
485.10	51.431
485.30	50.782
485.50	50.286
485.70	50.436
485.90	50.727
486.10	50.954
486.30	51.148
486.50	51.347
486.70	51.477
486.90	51.547
487.11	51.588
487.31	51.587
487.51	51.570
487.71	51.518
487.91	51.460
488.11	51.386
488.31	51.331
488.51	51.286
488.71	51.231
488.91	51.194
489.11	51.169
489.32	51.188
489.52	51.232
489.72	51.326
489.92	51.493
490.12	51.680
490.32	51.865
490.52	51.970
490.72	51.977
490.92	51.943
491.12	51.906
491.32	51.860
491.52	51.799
491.72	51.744
491.92	51.678
492.13	51.596
492.33	51.506
492.53	51.426
492.73	51.364
492.93	51.351
493.13	51.371
493.33	51.389
493.53	51.430
493.73	51.482
493.93	51.557
494.13	51.631
494.33	51.648
494.53	51.716
494.73	51.777
494.93	51.828
495.13	51.877
495.33	51.915
495.53	51.948
495.73	52.001
495.94	52.030
496.14	52.064
496.34	52.081
496.54	52.108
496.74	52.125
496.94	52.140
497.14	52.130
497.34	52.127
497.54	52.133
497.74	52.159
497.94	52.160
498.14	52.179
498.34	52.172
498.54	52.204
498.74	52.233
498.94	52.241
499.14	52.257
499.34	52.270
499.54	52.280
499.74	52.295
499.94	52.326
500.14	52.369
500.34	52.383
500.54	52.411
500.74	52.442
500.94	52.444
501.14	52.458
501.34	52.478
501.54	52.505
501.74	52.525
501.94	52.549
502.14	52.533
502.34	52.551
502.54	52.581
502.74	52.627
502.94	52.619
503.14	52.651
503.34	52.694
503.54	52.722
503.74	52.720
503.94	52.753
504.14	52.746
504.34	52.759
504.54	52.755
504.74	52.778
504.94	52.785
505.14	52.812
505.34	52.826
505.54	52.840
505.74	52.860
505.94	52.927
506.14	52.970
506.34	53.001
506.54	53.064
506.74	53.134
506.94	53.152
507.14	53.168
507.34	53.186
507.54	53.201
507.74	53.205
507.94	53.196
508.14	53.191
508.34	53.193
508.54	53.209
508.74	53.232
508.94	53.233
509.13	53.269
509.33	53.298
509.53	53.325
509.73	53.370
509.93	53.407
510.13	53.457
510.33	53.521
510.53	53.553
510.73	53.611
510.93	53.640
511.13	53.676
511.33	53.673
511.53	53.675
511.73	53.694
511.93	53.704
512.13	53.689
512.33	53.668
512.53	53.648
512.73	53.636
512.92	53.630
513.12	53.615
513.32	53.621
513.52	53.647
513.72	53.665
513.92	53.663
514.12	53.668
514.32	53.719
514.52	53.761
514.72	53.762
514.92	53.787
515.12	53.802
515.32	53.824
515.52	53.827
515.71	53.847
515.91	53.880
516.11	53.921
516.31	53.971
516.51	54.004
516.71	54.038
516.91	54.141
517.11	54.227
517.31	54.302
517.51	54.318
517.71	54.362
517.90	54.368
518.10	54.350
518.30	54.349
518.50	54.326
518.70	54.307
518.90	54.300
519.10	54.262
519.30	54.226
519.50	54.195
519.69	54.191
519.89	54.181
520.09	54.182
520.29	54.221
520.49	54.238
520.69	54.270
520.89	54.274
521.09	54.282
521.29	54.289
521.48	54.321
521.68	54.311
521.88	54.335
522.08	54.337
522.28	54.378
522.48	54.381
522.68	54.414
522.88	54.459
523.07	54.538
523.27	54.585
523.47	54.641
523.67	54.666
523.87	54.742
524.07	54.843
524.27	54.938
524.47	54.989
524.66	55.019
524.86	55.034
525.06	55.037
525.26	55.021
525.46	55.039
525.66	55.031
525.85	55.020
526.05	55.025
526.25	55.035
526.45	55.078
526.65	55.162
526.85	55.339
527.05	55.582
527.24	55.843
527.44	56.008
527.64	56.150
527.84	56.244
528.04	56.248
528.24	56.162
528.43	56.057
528.63	55.960
528.83	55.863
529.03	55.752
529.23	55.629
529.43	55.475
529.62	55.361
529.82	55.205
530.02	55.057
530.22	54.964
530.42	54.963
530.62	55.008
530.81	55.051
531.01	55.125
531.21	55.202
531.41	55.269
531.61	55.413
531.80	55.564
532.00	55.681
532.20	55.776
532.40	55.831
532.60	55.861
532.79	55.817
532.99	55.782
533.19	55.744
533.39	55.712
533.59	55.671
533.78	55.588
533.98	55.487
534.18	55.441
534.38	55.379
534.58	55.345
534.77	55.345
534.97	55.456
535.17	55.576
535.37	55.674
535.57	55.751
535.76	55.801
535.96	55.823
536.16	55.830
536.36	55.795
536.56	55.781
536.75	55.759
536.95	55.723
537.15	55.656
537.35	55.573
537.54	55.534
537.74	55.500
537.94	55.500
538.14	55.521
538.34	55.572
538.53	55.633
538.73	55.700
538.93	55.764
539.13	55.829
539.32	55.958
539.52	56.110
539.72	56.313
539.92	56.466
540.11	56.577
540.31	56.645
540.51	56.626
540.71	56.575
540.90	56.470
541.10	56.401
541.30	56.346
541.50	56.285
541.69	56.245
541.89	56.153
542.09	56.093
542.29	56.012
542.48	55.952
542.68	55.925
542.88	55.915
543.08	55.972
543.27	56.000
543.47	56.046
543.67	56.067
543.87	56.075
544.06	56.066
544.26	56.050
544.46	56.071
544.65	56.087
544.85	56.102
545.05	56.134
545.25	56.156
545.44	56.204
545.64	56.215
545.84	56.238
546.04	56.233
546.23	56.226
546.43	56.197
546.63	56.174
546.82	56.135
547.02	56.131
547.22	56.131
547.42	56.111
547.61	56.111
547.81	56.114
548.01	56.059
548.20	56.043
548.40	56.067
548.60	56.101
548.79	56.131
548.99	56.164
549.19	56.176
549.39	56.154
549.58	56.184
549.78	56.185
549.98	56.153
550.17	56.192
550.37	56.237
550.57	56.265
550.76	56.266
550.96	56.303
551.16	56.350
551.35	56.369
551.55	56.417
551.75	56.438
551.94	56.434
552.14	56.447
552.34	56.421
552.53	56.388
552.73	56.369
552.93	56.368
553.13	56.358
553.32	56.334
553.52	56.320
553.72	56.315
553.91	56.279
554.11	56.260
554.31	56.307
554.50	56.342
554.70	56.373
554.89	56.387
555.09	56.408
555.29	56.389
555.48	56.409
555.68	56.449
555.88	56.475
556.07	56.479
556.27	56.533
556.47	56.512
556.66	56.534
556.86	56.532
557.06	56.550
557.25	56.541
557.45	56.585
557.65	56.599
557.84	56.598
558.04	56.605
558.23	56.651
558.43	56.669
558.63	56.681
558.82	56.656
559.02	56.672
559.22	56.668
559.41	56.680
559.61	56.673
559.81	56.656
560.00	56.689
560.20	56.669
560.39	56.655
560.59	56.643
560.79	56.681
560.98	56.722
561.18	56.730
561.37	56.741
561.57	56.768
561.77	56.784
561.96	56.786
562.16	56.771
562.36	56.816
562.55	56.853
562.75	56.873
562.94	56.856
563.14	56.880
563.34	56.893
563.53	56.903
563.73	56.948
563.92	56.936
564.12	56.984
564.32	56.988
564.51	56.989
564.71	57.005
564.90	57.037
565.10	57.040
565.29	57.080
565.49	57.079
565.69	57.092
565.88	57.044
566.08	57.076
566.27	57.035
566.47	57.053
566.67	57.036
566.86	57.040
567.06	57.013
567.25	57.029
567.45	57.023
567.64	57.027
567.84	57.055
568.04	57.090
568.23	57.093
568.43	57.155
568.62	57.178
568.82	57.228
569.01	57.238
569.21	57.233
569.41	57.270
569.60	57.263
569.80	57.324
569.99	57.338
570.19	57.392
570.38	57.426
570.58	57.463
570.77	57.463
570.97	57.444
571.17	57.444
571.36	57.505
571.56	57.494
571.75	57.484
571.95	57.445
572.14	57.417
572.34	57.391
572.53	57.384
572.73	57.357
572.92	57.362
573.12	57.376
573.31	57.379
573.51	57.379
573.70	57.401
573.90	57.426
574.10	57.454
574.29	57.518
574.49	57.532
574.68	57.521
574.88	57.524
575.07	57.518
575.27	57.528
575.46	57.547
575.66	57.541
575.85	57.518
576.05	57.534
576.24	57.526
576.44	57.491
576.63	57.507
576.83	57.526
577.02	57.538
577.22	57.535
577.41	57.516
577.61	57.497
577.80	57.491
578.00	57.504
578.19	57.471
578.39	57.468
578.58	57.458
578.78	57.407
578.97	57.404
579.17	57.397
579.36	57.402
579.56	57.463
579.75	57.453
579.95	57.424
580.14	57.410
580.34	57.432
580.53	57.442
580.73	57.452
580.92	57.507
581.12	57.509
581.31	57.535
581.51	57.543
581.70	57.484
581.89	57.497
582.09	57.557
582.28	57.564
582.48	57.560
582.67	57.586
582.87	57.599
583.06	57.572
583.26	57.564
583.45	57.538
583.65	57.551
583.84	57.591
584.04	57.609
584.23	57.576
584.43	57.594
584.62	57.602
584.81	57.578
585.01	57.583
585.20	57.572
585.40	57.605
585.59	57.603
585.79	57.625
585.98	57.625
586.18	57.629
586.37	57.637
586.56	57.649
586.76	57.648
586.95	57.650
587.15	57.672
587.34	57.703
587.54	57.693
587.73	57.715
587.92	57.702
588.12	57.715
588.31	57.729
588.51	57.741
588.70	57.770
588.90	57.782
589.09	57.805
589.28	57.804
589.48	57.798
589.67	57.792
589.87	57.790
590.06	57.803
590.25	57.797
590.45	57.810
590.64	57.822
590.84	57.799
591.03	57.810
591.23	57.811
591.42	57.785
591.61	57.807
591.81	57.825
592.00	57.843
592.20	57.858
592.39	57.851
592.58	57.859
592.78	57.852
592.97	57.880
593.17	57.910
593.36	57.911
593.55	57.964
593.75	57.978
593.94	57.954
594.13	57.947
594.33	57.977
594.52	58.019
594.72	58.044
594.91	58.103
595.10	58.127
595.30	58.156
595.49	58.243
595.68	58.340
595.88	58.366
596.07	58.418
596.27	58.443
596.46	58.411
596.65	58.385
596.85	58.327
597.04	58.272
597.23	58.257
597.43	58.209
597.62	58.161
597.81	58.073
598.01	58.050
598.20	58.044
598.40	58.027
598.59	58.033
598.78	58.033
598.98	58.092
599.17	58.121
599.36	58.101
599.56	58.158
599.75	58.142
599.94	58.148
600.14	58.190
600.33	58.190
600.52	58.163
600.72	58.150
600.91	58.173
601.10	58.153
601.30	58.169
601.49	58.202
601.68	58.216
601.88	58.282
602.07	58.319
602.26	58.321
602.46	58.349
602.65	58.409
602.84	58.473
603.04	58.530
603.23	58.569
603.42	58.630
603.62	58.667
603.81	58.635
604.00	58.621
604.20	58.592
604.39	58.561
604.58	58.530
604.77	58.486
604.97	58.451
605.16	58.411
605.35	58.397
605.55	58.366
605.74	58.328
605.93	58.367
606.13	58.353
606.32	58.353
606.51	58.385
606.70	58.421
606.90	58.488
607.09	58.500
607.28	58.512
607.48	58.500
607.67	58.503
607.86	58.545
608.05	58.527
608.25	58.579
608.44	58.625
608.63	58.625
608.83	58.602
609.02	58.575
609.21	58.590
609.40	58.589
609.60	58.580
609.79	58.564
609.98	58.527
610.17	58.505
610.37	58.456
610.56	58.429
610.75	58.409
610.95	58.424
611.14	58.424
611.33	58.417
611.52	58.407
611.72	58.436
611.91	58.431
612.10	58.446
612.29	58.466
612.49	58.461
612.68	58.464
612.87	58.474
613.06	58.452
613.26	58.471
613.45	58.428
613.64	58.417
613.83	58.373
614.03	58.371
614.22	58.348
614.41	58.346
614.60	58.348
614.79	58.373
614.99	58.417
615.18	58.415
615.37	58.415
615.56	58.437
615.76	58.477
615.95	58.508
616.14	58.503
616.33	58.539
616.53	58.535
616.72	58.567
616.91	58.526
617.10	58.484
617.29	58.484
617.49	58.484
617.68	58.509
617.87	58.496
618.06	58.503
618.25	58.507
618.45	58.466
618.64	58.445
618.83	58.470
619.02	58.468
619.21	58.480
619.41	58.478
619.60	58.479
619.79	58.445
619.98	58.434
620.17	58.430
620.37	58.439
620.56	58.468
620.75	58.490
620.94	58.429
621.13	58.433
621.33	58.435
621.52	58.457
621.71	58.503
621.90	58.546
622.09	58.534
622.28	58.486
622.48	58.485
622.67	58.497
622.86	58.522
623.05	58.548
623.24	58.568
623.44	58.564
623.63	58.551
623.82	58.514
624.01	58.513
624.20	58.566
624.39	58.626
624.59	58.657
624.78	58.687
624.97	58.709
625.16	58.750
625.35	58.786
625.54	58.825
625.73	58.891
625.93	58.912
626.12	58.961
626.31	58.970
626.50	58.993
626.69	58.996
626.88	58.972
627.07	58.973
627.27	58.943
627.46	58.926
627.65	58.911
627.84	58.883
628.03	58.867
628.22	58.837
628.41	58.830
628.61	58.849
628.80	58.842
628.99	58.881
629.18	58.859
629.37	58.866
629.56	58.874
629.75	58.862
629.94	58.856
630.14	58.872
630.33	58.865
630.52	58.863
630.71	58.818
630.90	58.828
631.09	58.799
631.28	58.796
631.47	58.797
631.66	58.803
631.86	58.847
632.05	58.841
632.24	58.836
632.43	58.856
632.62	58.865
632.81	58.911
633.00	58.922
633.19	58.905
633.38	58.907
633.57	58.936
633.77	58.931
633.96	58.926
634.15	58.902
634.34	58.901
634.53	58.887
634.72	58.904
634.91	58.871
635.10	58.853
635.29	58.884
635.48	58.900
635.67	58.870
635.86	58.891
636.05	58.897
636.25	58.950
636.44	58.979
636.63	58.990
636.82	58.967
637.01	58.991
637.20	59.004
637.39	58.998
637.58	58.979
637.77	59.018
637.96	59.016
638.15	59.049
638.34	59.061
638.53	59.061
638.72	59.044
638.91	59.055
639.10	59.052
639.30	59.067
639.49	59.059
639.68	59.083
639.87	59.068
640.06	59.050
640.25	59.007
640.44	58.969
640.63	58.951
640.82	58.946
641.01	58.951
641.20	58.940
641.39	58.927
641.58	58.935
641.77	58.932
641.96	58.969
642.15	59.008
642.34	59.036
642.53	59.073
642.72	59.103
642.91	59.115
643.10	59.107
643.29	59.158
643.48	59.150
643.67	59.129
643.86	59.163
644.05	59.133
644.24	59.115
644.43	59.089
644.62	59.118
644.81	59.110
645.00	59.122
645.19	59.104
645.38	59.089
645.57	59.093
645.76	59.094
645.95	59.060
646.14	59.122
646.33	59.124
646.52	59.113
646.71	59.091
646.90	59.063
647.09	59.087
647.28	59.084
647.47	59.083
647.66	59.073
647.85	59.099
648.04	59.152
648.23	59.063
648.42	59.049
648.61	59.104
648.80	59.096
648.99	59.149
649.18	59.146
649.37	59.190
649.56	59.171
649.75	59.199
649.94	59.206
650.13	59.178
650.32	59.195
650.51	59.198
650.70	59.170
650.89	59.194
651.08	59.196
651.27	59.209
651.46	59.208
651.65	59.228
651.83	59.223
652.02	59.247
652.21	59.275
652.40	59.334
652.59	59.380
652.78	59.373
652.97	59.357
653.16	59.341
653.35	59.351
653.54	59.333
653.73	59.365
653.92	59.388
654.11	59.353
654.30	59.352
654.49	59.357
654.68	59.296
654.86	59.345
655.05	59.376
655.24	59.411
655.43	59.374
655.62	59.440
655.81	59.441
656.00	59.385
656.19	59.414
656.38	59.421
656.57	59.414
656.76	59.461
656.95	59.486
657.13	59.504
657.32	59.528
657.51	59.606
657.70	59.623
657.89	59.646
658.08	59.788
658.27	59.802
658.46	59.804
658.65	59.791
658.84	59.800
659.02	59.797
659.21	59.832
659.40	59.855
659.59	59.852
659.78	59.824
659.97	59.797
660.16	59.740
660.35	59.710
660.54	59.669
660.72	59.692
660.91	59.707
661.10	59.672
661.29	59.621
661.48	59.578
661.67	59.542
661.86	59.537
662.05	59.546
662.23	59.507
662.42	59.518
662.61	59.558
662.80	59.517
662.99	59.504
663.18	59.551
663.37	59.542
663.56	59.507
663.74	59.499
663.93	59.453
664.12	59.439
664.31	59.452
664.50	59.486
664.69	59.469
664.87	59.504
665.06	59.520
665.25	59.450
665.44	59.444
665.63	59.469
665.82	59.485
666.01	59.501
666.19	59.510
666.38	59.508
666.57	59.497
666.76	59.531
666.95	59.494
667.14	59.475
667.32	59.503
667.51	59.494
667.70	59.487
667.89	59.463
668.08	59.488
668.26	59.467
668.45	59.447
668.64	59.425
668.83	59.418
669.02	59.447
669.21	59.466
669.39	59.460
669.58	59.487
669.77	59.513
669.96	59.559
670.15	59.581
670.33	59.585
670.52	59.600
670.71	59.590
670.90	59.554
671.09	59.536
671.27	59.519
671.46	59.502
671.65	59.478
671.84	59.439
672.03	59.426
672.21	59.419
672.40	59.416
672.59	59.446
672.78	59.513
672.96	59.520
673.15	59.547
673.34	59.523
673.53	59.526
673.72	59.493
673.90	59.440
674.09	59.430
674.28	59.414
674.47	59.421
674.65	59.407
674.84	59.346
675.03	59.369
675.22	59.370
675.41	59.421
675.59	59.467
675.78	59.527
675.97	59.626
676.16	59.617
676.34	59.653
676.53	59.669
676.72	59.694
676.91	59.726
677.09	59.730
677.28	59.752
677.47	59.740
677.66	59.729
677.84	59.722
678.03	59.721
678.22	59.756
678.41	59.797
678.59	59.855
678.78	59.851
678.97	59.913
679.15	59.967
679.34	59.985
679.53	59.996
679.72	60.014
679.90	60.054
680.09	60.079
680.28	60.063
680.47	60.006
680.65	59.953
680.84	59.958
681.03	59.914
681.21	59.894
681.40	59.840
681.59	59.822
681.78	59.816
681.96	59.761
682.15	59.685
682.34	59.714
682.52	59.710
682.71	59.679
682.90	59.610
683.08	59.605
683.27	59.604
683.46	59.625
683.65	59.649
683.83	59.597
684.02	59.621
684.21	59.661
684.39	59.620
684.58	59.650
684.77	59.699
684.95	59.747
685.14	59.745
685.33	59.719
685.51	59.724
685.70	59.663
685.89	59.680
686.07	59.672
686.26	59.671
686.45	59.680
686.63	59.624
686.82	59.655
687.01	59.687
687.20	59.679
687.38	59.673
687.57	59.649
687.75	59.678
687.94	59.720
688.13	59.681
688.31	59.650
688.50	59.674
688.69	59.715
688.87	59.700
689.06	59.644
689.25	59.664
689.43	59.661
689.62	59.717
689.81	59.760
689.99	59.728
690.18	59.781
690.37	59.812
690.55	59.738
690.74	59.763
690.93	59.755
691.11	59.815
691.30	59.827
691.48	59.900
691.67	59.873
691.86	59.833
692.04	59.874
692.23	59.903
692.42	59.946
692.60	60.008
692.79	60.008
692.97	60.019
693.16	60.001
693.35	59.978
693.53	59.942
693.72	59.979
693.90	60.044
694.09	60.021
694.28	60.007
694.46	60.009
694.65	60.000
694.83	60.014
695.02	60.011
695.21	60.088
695.39	60.110
695.58	60.133
695.76	60.120
695.95	60.080
696.14	60.111
696.32	60.167
696.51	60.158
696.69	60.211
696.88	60.283
697.07	60.384
697.25	60.393
697.44	60.472
697.62	60.553
697.81	60.593
697.99	60.622
698.18	60.639
698.37	60.615
698.55	60.627
698.74	60.614
698.92	60.575
699.11	60.510
699.29	60.458
699.48	60.422
699.67	60.383
699.85	60.331
700.04	60.308
700.22	60.297
700.41	60.264
700.59	60.199
700.78	60.215
700.96	60.165
701.15	60.141
701.34	60.155
701.52	60.114
701.71	60.055
701.89	60.054
702.08	60.053
702.26	60.047
702.45	60.066
702.63	60.112
702.82	60.166
703.00	60.266
703.19	60.274
703.38	60.274
703.56	60.276
703.75	60.297
703.93	60.306
704.12	60.266
704.30	60.272
704.49	60.278
704.67	60.261
704.86	60.176
705.04	60.106
705.23	60.187
705.41	60.231
705.60	60.257
705.78	60.218
705.97	60.177
706.15	60.205
706.34	60.183
706.52	60.177
706.71	60.237
706.89	60.232
707.08	60.208
707.26	60.153
707.45	60.106
707.63	60.127
707.82	60.132
708.00	60.157
708.19	60.112
708.37	60.086
708.56	60.068
708.74	60.040
708.93	60.011
709.11	59.996
709.30	60.000
709.48	60.000
709.67	59.946
709.85	59.915
710.04	59.942
710.22	59.982
710.41	60.021
710.59	60.042
710.77	60.015
710.96	59.994
711.14	60.011
711.33	59.984
711.51	59.977
711.70	59.954
711.88	59.982
712.07	59.980
712.25	59.974
712.44	59.914
712.62	59.878
712.80	59.893
712.99	59.909
713.17	59.890
713.36	59.870
713.54	59.907
713.73	59.932
713.91	59.985
714.10	60.003
714.28	60.052
714.46	60.127
714.65	60.222
714.83	60.269
715.02	60.331
715.20	60.382
715.39	60.432
715.57	60.419
715.75	60.465
715.94	60.370
716.12	60.342
716.31	60.354
716.49	60.345
716.68	60.237
716.86	60.249
717.04	60.213
717.23	60.242
717.41	60.303
717.60	60.337
717.78	60.394
717.96	60.427
718.15	60.417
718.33	60.329
718.52	60.354
718.70	60.452
718.88	60.432
719.07	60.453
719.25	60.401
719.44	60.311
719.62	60.240
719.80	60.132
719.99	60.127
720.17	60.146
720.36	60.272
720.54	60.277
720.72	60.289
720.91	60.212
721.09	60.161
721.27	60.190
721.46	60.236
721.64	60.277
721.83	60.303
722.01	60.320
722.19	60.344
722.38	60.281
722.56	60.185
722.74	60.177
722.93	60.196
723.11	60.237
723.30	60.202
723.48	60.252
723.66	60.257
723.85	60.293
724.03	60.402
724.21	60.413
724.40	60.441
724.58	60.485
724.76	60.489
724.95	60.553
725.13	60.611
725.31	60.625
725.50	60.590
725.68	60.617
725.86	60.588
726.05	60.526
726.23	60.571
726.41	60.521
726.60	60.511
726.78	60.530
726.96	60.522
727.15	60.479
727.33	60.484
727.51	60.517
727.70	60.512
727.88	60.532
728.06	60.521
728.25	60.423
728.43	60.491
728.61	60.637
728.80	60.594
728.98	60.557
729.16	60.510
729.34	60.520
729.53	60.488
729.71	60.405
729.89	60.439
730.08	60.516
730.26	60.547
730.44	60.496
730.63	60.445
730.81	60.446
730.99	60.500
731.17	60.576
731.36	60.515
731.54	60.455
731.72	60.541
731.91	60.514
732.09	60.522
732.27	60.525
732.45	60.525
732.64	60.504
732.82	60.450
733.00	60.458
733.19	60.400
733.37	60.476
733.55	60.485
733.73	60.526
733.92	60.521
734.10	60.454
734.28	60.472
734.46	60.531
734.65	60.470
734.83	60.553
735.01	60.507
735.19	60.449
735.38	60.385
735.56	60.452
735.74	60.403
735.92	60.412
736.11	60.416
736.29	60.416
736.47	60.366
736.65	60.395
736.84	60.344
737.02	60.343
737.20	60.444
737.38	60.536
737.57	60.541
737.75	60.500
737.93	60.472
738.11	60.435
738.30	60.405
738.48	60.368
738.66	60.335
738.84	60.363
739.02	60.367
739.21	60.303
739.39	60.320
739.57	60.297
739.75	60.346
739.93	60.347
740.12	60.361
740.30	60.349
740.48	60.372
740.66	60.346
740.85	60.330
741.03	60.309
741.21	60.403
741.39	60.348
741.57	60.287
741.76	60.206
741.94	60.219
742.12	60.214
742.30	60.250
742.48	60.285
742.66	60.396
742.85	60.425
743.03	60.455
743.21	60.427
743.39	60.386
743.57	60.455
743.76	60.504
743.94	60.534
744.12	60.510
744.30	60.557
744.48	60.493
744.66	60.436
744.85	60.436
745.03	60.433
745.21	60.451
745.39	60.523
745.57	60.503
745.75	60.472
745.94	60.445
746.12	60.520
746.30	60.505
746.48	60.548
746.66	60.565
746.84	60.550
747.02	60.550
747.21	60.575
747.39	60.599
747.57	60.541
747.75	60.633
747.93	60.746
748.11	60.756
748.29	60.799
748.48	60.784
748.66	60.811
748.84	60.807
749.02	60.807
749.20	60.772
749.38	60.716
749.56	60.797
749.75	60.794
749.93	60.681
750.11	60.667
750.29	60.568
750.47	60.621
750.65	60.563
750.83	60.594
751.01	60.590
751.19	60.607
751.38	60.628
751.56	60.609
751.74	60.578
751.92	60.636
752.10	60.624
752.28	60.697
752.46	60.722
752.64	60.663
752.82	60.727
753.00	60.748
753.19	60.738
753.37	60.665
753.55	60.753
753.73	60.747
753.91	60.664
754.09	60.596
754.27	60.523
754.45	60.455
754.63	60.515
754.81	60.374
754.99	60.356
755.17	60.407
755.36	60.471
755.54	60.351
755.72	60.386
755.90	60.398
756.08	60.477
756.26	60.501
756.44	60.507
756.62	60.546
756.80	60.613
756.98	60.661
757.16	60.580
757.34	60.644
757.52	60.707
757.70	60.639
757.88	60.652
758.06	60.689
758.24	60.683
758.42	60.677
758.61	60.646
758.79	60.616
758.97	60.609
759.15	60.678
759.33	60.610
759.51	60.538
759.69	60.535
759.87	60.585
760.05	60.563
760.23	60.556
760.41	60.552
760.59	60.548
760.77	60.577
760.95	60.561
761.13	60.487
761.31	60.523
761.49	60.552
761.67	60.612
761.85	60.628
762.03	60.610
762.21	60.685
762.39	60.762
762.57	60.866
762.75	60.825
762.93	60.745
763.11	60.739
763.29	60.600
763.47	60.550
763.65	60.433
763.83	60.300
764.01	60.230
764.19	60.132
764.37	60.086
764.55	59.983
764.73	59.949
764.91	59.948
765.09	59.905
765.27	59.928
765.45	59.962
765.63	60.030
765.81	60.161
765.99	60.257
766.17	60.307
766.35	60.343
766.53	60.335
766.71	60.427
766.89	60.500
767.07	60.575
767.25	60.686
767.43	60.666
767.61	60.728
767.78	60.712
767.96	60.699
768.14	60.797
768.32	60.797
768.50	60.916
768.68	60.911
768.86	60.857
769.04	60.847
769.22	60.839
769.40	60.885
769.58	60.813
769.76	60.810
769.94	60.819
770.12	60.852
770.30	60.890
770.48	60.845
770.66	60.824
770.84	60.863
771.01	60.920
771.19	60.868
771.37	60.896
771.55	60.927
771.73	60.925
771.91	60.942
772.09	60.906
772.27	60.810
772.45	60.799
772.63	60.796
772.81	60.752
772.99	60.621
773.16	60.642
773.34	60.579
773.52	60.671
773.70	60.677
773.88	60.726
774.06	60.704
774.24	60.722
774.42	60.765
774.60	60.780
774.78	60.794
774.95	60.913
775.13	61.029
775.31	61.108
775.49	61.104
775.67	61.112
775.85	61.061
776.03	61.114
776.21	61.137
776.38	61.181
776.56	61.129
776.74	61.177
776.92	61.107
777.10	61.001
777.28	60.969
777.46	61.041
777.64	61.048
777.81	61.095
777.99	61.073
778.17	61.042
778.35	61.063
778.53	61.141
778.71	61.172
778.89	61.261
779.06	61.298
779.24	61.342
779.42	61.201
779.60	61.191
779.78	61.118
779.96	61.210
780.13	61.259
780.31	61.200
780.49	61.233
780.67	61.227
780.85	61.280
781.03	61.206
781.20	61.154
781.38	61.118
781.56	61.182
781.74	61.245
781.92	61.059
782.10	61.037
782.27	61.088
782.45	61.152
782.63	61.073
782.81	61.050
782.99	61.068
783.17	61.124
783.34	61.161
783.52	61.154
783.70	61.120
783.88	61.180
784.06	61.227
784.23	61.199
784.41	61.049
784.59	61.074
784.77	60.962
784.95	61.035
785.12	60.989
785.30	61.039
785.48	61.049
785.66	61.105
785.83	61.215
786.01	61.263
786.19	61.292
786.37	61.235
786.55	61.291
786.72	61.344
786.90	61.344
787.08	61.429
787.26	61.437
787.43	61.465
787.61	61.486
787.79	61.382
787.97	61.253
788.15	61.154
788.32	61.163
788.50	61.192
788.68	61.207
788.86	61.152
789.03	61.095
789.21	61.093
789.39	61.023
789.57	60.990
789.74	61.038
789.92	61.119
790.10	61.160
790.28	61.204
790.45	61.257
790.63	61.236
790.81	61.268
790.99	61.263
791.16	61.265
791.34	61.337
791.52	61.184
791.69	61.259
791.87	61.259
792.05	61.295
792.23	61.305
792.40	61.214
792.58	61.235
792.76	61.244
792.94	61.329
793.11	61.339
793.29	61.226
793.47	61.280
793.64	61.233
793.82	61.255
794.00	61.320
794.18	61.418
794.35	61.367
794.53	61.343
794.71	61.415
794.88	61.400
795.06	61.438
795.24	61.525
795.41	61.686
795.59	61.732
795.77	61.733
795.94	61.559
796.12	61.528
796.30	61.592
796.48	61.484
796.65	61.425
796.83	61.414
797.01	61.359
797.18	61.328
797.36	61.276
797.54	61.178
797.71	61.061
797.89	61.081
798.07	60.995
798.24	60.991
798.42	61.101
798.60	61.187
798.77	61.230
798.95	61.200
799.13	61.170
799.30	61.206
799.48	61.187
799.66	61.228
799.83	61.596
800.01	61.725
800.18	61.681
800.36	61.696
800.54	61.611
800.71	61.485
800.89	61.470
801.07	61.475
801.24	61.551
801.42	61.582
801.60	61.651
801.77	61.416
801.95	61.379
802.12	61.479
802.30	61.503
802.48	61.668
802.65	61.731
802.83	61.847
803.01	62.034
803.18	61.768
803.36	61.758
803.53	61.757
803.71	61.874
803.89	61.872
804.06	61.766
804.24	61.808
804.41	61.666
804.59	61.662
804.77	61.796
804.94	61.655
805.12	61.812
805.29	61.649
805.47	61.649
805.65	61.413
805.82	61.499
806.00	61.494
806.17	61.327
806.35	61.240
806.53	61.309
806.70	61.225
806.88	61.235
807.05	61.174
807.23	61.209
807.40	61.177
807.58	61.244
807.76	61.173
807.93	61.157
808.11	61.235
808.28	61.305
808.46	61.140
808.63	61.043
808.81	61.057
808.99	61.227
809.16	61.310
809.34	61.226
809.51	61.094
809.69	61.095
809.86	61.160
810.04	61.200
810.21	61.171
810.39	61.361
810.57	61.414
810.74	61.442
810.92	61.270
811.09	61.335
811.27	61.540
811.44	61.671
811.62	61.734
811.79	61.827
811.97	61.767
812.14	61.710
812.32	61.687
812.49	61.601
812.67	61.767
812.84	61.975
813.02	62.025
813.19	62.005
813.37	61.938
813.55	61.859
813.72	61.670
813.90	61.767
814.07	61.935
814.25	61.771
814.42	62.001
814.60	61.778
814.77	61.473
814.95	61.514
815.12	61.496
815.30	61.753
815.47	61.622
815.65	61.804
815.82	61.777
816.00	61.750
816.17	61.841
816.35	61.613
816.52	61.631
816.69	61.845
816.87	61.772
817.04	61.717
817.22	61.541
817.39	61.796
817.57	61.676
817.74	61.628
817.92	61.641
818.09	61.592
818.27	61.686
818.44	61.602
818.62	61.747
818.79	61.647
818.97	61.643
819.14	61.862
819.32	61.630
819.49	61.646
819.66	61.660
819.84	61.568
820.01	61.547
820.19	61.484
820.36	61.416
820.54	61.318
820.71	61.389
820.89	61.495
821.06	61.485
821.23	61.762
821.41	61.734
821.58	61.619
821.76	61.427
821.93	61.190
822.11	60.883
822.28	60.663
822.45	60.364
822.63	60.142
822.80	59.980
822.98	59.830
823.15	59.658
823.33	59.519
823.50	59.369
823.67	59.241
823.85	59.160
824.02	59.124
824.20	59.107
824.37	59.210
824.54	59.347
824.72	59.428
824.89	59.530
825.07	59.595
825.24	59.686
825.41	59.800
825.59	59.950
825.76	60.061
825.94	60.289
826.11	60.525
826.28	60.760
826.46	60.880
826.63	60.907
826.80	60.839
826.98	60.822
827.15	60.803
827.33	60.742
827.50	60.622
827.67	60.555
827.85	60.411
828.02	60.300
828.19	60.193
828.37	60.067
828.54	60.103
828.72	60.152
828.89	60.156
829.06	60.190
829.24	60.291
829.41	60.402
829.58	60.434
829.76	60.595
829.93	60.666
830.10	60.633
830.28	60.823
830.45	60.877
830.62	60.933
830.80	61.186
830.97	61.239
831.14	61.182
831.32	61.197
831.49	61.254
831.66	61.383
831.84	61.487
832.01	61.780
832.18	61.812
832.36	61.938
832.53	62.165
832.70	62.139
832.88	62.200
833.05	62.283
833.22	62.146
833.40	62.095
833.57	61.897
833.74	61.648
833.91	61.470
834.09	61.326
834.26	61.113
834.43	60.968
834.61	60.840
834.78	60.669
834.95	60.529
835.13	60.565
835.30	60.529
835.47	60.477
835.64	60.542
835.82	60.526
835.99	60.593
836.16	60.709
836.34	60.739
836.51	60.786
836.68	60.804
836.85	60.871
837.03	60.946
837.20	60.923
837.37	61.043
837.54	61.100
837.72	61.154
837.89	61.064
838.06	61.131
838.24	61.219
838.41	61.401
838.58	61.577
838.75	61.722
838.93	61.877
839.10	61.951
839.27	62.002
839.44	62.075
839.62	62.331
839.79	62.537
839.96	62.489
840.13	62.413
840.31	62.091
840.48	61.913
840.65	61.753
840.82	61.450
840.99	61.556
841.17	61.333
841.34	61.317
841.51	61.217
841.68	61.202
841.86	61.206
842.03	61.069
842.20	61.338
842.37	61.610
842.55	61.743
842.72	61.835
842.89	61.627
843.06	61.925
843.23	61.653
843.41	61.566
843.58	61.428
843.75	61.467
843.92	61.616
844.09	61.487
844.27	61.305
844.44	61.465
844.61	61.765
844.78	62.143
844.95	61.910
845.13	62.359
845.30	62.273
845.47	62.256
845.64	62.197
845.81	62.517
845.98	62.525
846.16	62.591
846.33	62.546
846.50	62.379
846.67	62.206
846.84	62.485
847.02	62.365
847.19	62.628
847.36	62.589
847.53	62.500
847.70	62.152
847.87	62.539
848.04	62.668
848.22	62.596
848.39	62.447
848.56	62.271
848.73	61.966
848.90	61.722
849.07	61.300
849.25	61.375
849.42	61.308
849.59	61.389
849.76	61.021
849.93	60.740
850.10	60.757
850.27	61.112
850.45	61.092
850.62	61.342
850.79	61.289
850.96	61.488
851.13	61.789
851.30	61.538
851.47	61.691
851.64	61.712
851.82	61.995
851.99	62.120
852.16	62.213
852.33	62.423
852.50	62.360
852.67	62.442
852.84	62.171
853.01	61.814
853.18	62.001
853.35	61.822
853.53	61.725
853.70	61.450
853.87	61.473
854.04	61.035
854.21	61.078
854.38	60.974
854.55	60.944
854.72	61.387
854.89	61.175
855.06	61.190
855.23	61.243
855.41	61.472
855.58	61.301
855.75	61.003
855.92	60.987
856.09	61.089
856.26	61.397
856.43	61.481
856.60	61.395
856.77	61.632
856.94	61.926
857.11	61.812
857.28	61.617
857.45	61.963
857.62	61.954
857.80	62.120
857.97	61.686
858.14	61.598
858.31	61.900
858.48	61.951
858.65	62.243
858.82	62.288
858.99	62.402
859.16	62.399
859.33	62.481
859.50	62.449
859.67	62.559
859.84	62.838
860.01	62.682
860.18	62.411
860.35	62.441
860.52	62.193
860.69	61.989
860.86	62.205
861.03	61.796
861.20	61.967
861.37	62.319
861.54	62.027
861.71	61.589
861.88	61.667
862.05	61.875
862.22	61.661
862.39	61.903
862.56	62.079
862.73	61.768
862.90	62.509
863.07	62.205
863.24	62.205
863.41	62.467
863.58	62.969
863.75	63.041
863.92	63.013
864.09	63.512
864.26	62.859
864.43	62.545
864.60	62.691
864.77	62.540
864.94	62.904
865.11	62.745
865.28	62.806
865.45	62.372
865.62	62.377
865.79	62.431
865.96	61.981
866.13	62.409
866.30	62.240
866.47	62.165
866.64	61.757
866.81	61.487
866.98	61.656
867.15	61.371
867.32	61.733
867.49	61.678
867.66	61.754
867.82	62.024
867.99	62.119
868.16	62.261
868.33	62.296
868.50	62.803
868.67	62.816
868.84	62.895
869.01	62.925
869.18	62.987
869.35	62.949
869.52	62.880
869.69	62.817
869.86	62.580
870.03	62.829
870.19	62.412
870.36	62.497
870.53	62.220
870.70	61.823
870.87	62.016
871.04	61.895
871.21	62.144
871.38	62.283
871.55	62.176
871.72	62.152
871.89	62.008
872.05	62.283
872.22	62.077
872.39	62.307
872.56	62.527
872.73	62.094
872.90	62.230
873.07	62.069
873.24	61.898
873.41	62.041
873.57	62.226
873.74	62.120
873.91	62.048
874.08	62.042
874.25	62.053
874.42	62.110
874.59	62.288
874.76	62.087
874.92	61.863
875.09	61.901
875.26	61.925
875.43	61.935
875.60	61.953
875.77	61.930
875.94	61.669
876.11	61.866
876.27	61.637
876.44	61.563
876.61	61.682
876.78	61.921
876.95	61.739
877.12	61.639
877.28	61.599
877.45	61.847
877.62	61.962
877.79	62.401
877.96	62.475
878.13	62.773
878.29	62.951
878.46	62.841
878.63	62.914
878.80	63.226
878.97	63.121
879.14	63.005
879.30	63.017
879.47	63.337
879.64	63.340
879.81	63.214
879.98	63.215
880.14	63.259
880.31	63.442
880.48	63.464
880.65	63.418
880.82	63.105
880.98	62.831
881.15	62.399
881.32	62.025
881.49	61.605
881.66	61.264
881.82	60.953
881.99	60.668
882.16	60.441
882.33	60.236
882.50	60.013
882.66	59.931
882.83	59.792
883.00	59.689
883.17	59.607
883.33	59.572
883.50	59.605
883.67	59.672
883.84	59.789
884.01	59.867
884.17	59.909
884.34	59.976
884.51	60.006
884.68	60.092
884.84	60.235
885.01	60.338
885.18	60.522
885.35	60.663
885.51	60.689
885.68	60.764
885.85	60.810
886.02	61.000
886.18	61.048
886.35	61.122
886.52	61.229
886.69	61.165
886.85	61.126
887.02	61.026
887.19	60.927
887.35	61.197
887.52	61.201
887.69	61.287
887.86	61.493
888.02	61.936
888.19	61.991
888.36	62.037
888.53	61.895
888.69	65.211
888.86	64.014
889.03	61.515
>>>>>End Spectral Data<<<<<
