OOIBase32 Version 2.0.6.5 Data File
++++++++++++++++++++++++++++++++++++
Date: 11-17-2016, 11:08:19
User: Valued Ocean Optics Customer
Spectrometer Serial Number: USB4C01507
Spectrometer Channel: Master
Integration Time (msec): 49
Spectra Averaged: 25
Boxcar Smoothing: 5
Correct for Electrical Dark: Enabled
Time Normalized: Disabled
Dual-beam Reference: Disabled
Reference Channel: Master
Temperature: Not acquired
Spectrometer Type: S4000
ADC Type: USB4000
Number of Pixels in File: 3648
Graph Title: 
>>>>>Begin Spectral Data<<<<<
178.53	1597.530
178.74	2185.840
178.96	72.794
179.18	71.013
179.39	523.465
179.61	-9.898
179.82	48.366
180.04	78.608
180.25	181.241
180.47	-96.115
180.69	84.937
180.90	141.454
181.12	184.107
181.33	228.335
181.55	21.753
181.76	2729.047
181.98	26.151
182.20	432.309
182.41	-21.185
182.63	-144.807
182.84	0.600
183.06	3.219
183.27	-3.977
183.49	-6.793
183.71	-7.791
183.92	-9.973
184.14	-10.782
184.35	-2.556
184.57	-12.916
184.78	0.890
185.00	1.110
185.21	4.294
185.43	12.502
185.65	19.868
185.86	10.974
186.08	11.060
186.29	9.765
186.51	3.550
186.72	-8.221
186.94	1.479
187.15	-10.533
187.37	-14.901
187.58	-10.345
187.80	-11.048
188.02	-3.759
188.23	-2.318
188.45	1.640
188.66	6.065
188.88	13.280
189.09	18.860
189.31	21.388
189.52	23.811
189.74	23.467
189.95	24.455
190.17	23.909
190.38	19.394
190.60	25.936
190.82	21.858
191.03	23.363
191.25	23.377
191.46	19.772
191.68	15.919
191.89	10.304
192.11	8.547
192.32	3.676
192.54	3.877
192.75	12.501
192.97	11.406
193.18	14.097
193.40	14.909
193.61	12.412
193.83	18.823
194.04	16.288
194.26	27.630
194.48	29.181
194.69	36.811
194.91	25.752
195.12	18.141
195.34	23.763
195.55	20.523
195.77	17.983
195.98	14.305
196.20	8.259
196.41	8.161
196.63	1.347
196.84	3.938
197.06	0.655
197.27	7.812
197.49	6.380
197.70	1.286
197.92	6.614
198.13	4.538
198.35	0.314
198.56	-3.421
198.78	-9.194
198.99	-5.293
199.21	-6.501
199.42	-8.120
199.64	-3.821
199.85	-2.677
200.07	-2.783
200.28	-0.519
200.50	2.149
200.71	9.412
200.93	17.876
201.14	21.748
201.36	23.298
201.57	20.252
201.79	23.052
202.00	22.421
202.22	20.122
202.43	21.696
202.65	18.271
202.86	17.797
203.08	17.026
203.29	13.266
203.51	13.710
203.72	12.308
203.94	17.649
204.15	15.904
204.37	14.680
204.58	15.596
204.80	15.696
205.01	17.372
205.22	15.860
205.44	14.461
205.65	9.572
205.87	6.219
206.08	4.943
206.30	3.654
206.51	4.666
206.73	2.519
206.94	1.800
207.16	-0.348
207.37	-1.552
207.59	-1.039
207.80	2.418
208.02	7.075
208.23	9.329
208.45	8.405
208.66	3.865
208.88	3.691
209.09	5.663
209.30	8.936
209.52	8.223
209.73	9.854
209.95	9.742
210.16	4.208
210.38	7.358
210.59	5.627
210.81	2.807
211.02	6.041
211.24	5.364
211.45	2.054
211.66	2.650
211.88	1.801
212.09	0.769
212.31	2.701
212.52	5.467
212.74	-0.581
212.95	0.605
213.17	5.075
213.38	6.531
213.60	6.577
213.81	9.891
214.02	9.305
214.24	10.660
214.45	7.899
214.67	6.239
214.88	4.458
215.10	7.440
215.31	5.274
215.53	4.514
215.74	3.397
215.95	5.645
216.17	2.796
216.38	0.998
216.60	0.934
216.81	4.330
217.03	5.450
217.24	7.458
217.45	7.431
217.67	9.161
217.88	7.880
218.10	7.468
218.31	5.382
218.53	7.783
218.74	8.211
218.95	5.075
219.17	0.927
219.38	0.419
219.60	-0.171
219.81	-0.110
220.03	0.863
220.24	1.195
220.45	0.844
220.67	1.152
220.88	1.573
221.10	1.572
221.31	2.640
221.53	3.791
221.74	2.822
221.95	2.768
222.17	1.707
222.38	1.406
222.60	0.877
222.81	0.839
223.02	0.588
223.24	0.446
223.45	1.298
223.67	0.978
223.88	1.227
224.09	1.592
224.31	1.864
224.52	2.452
224.74	1.343
224.95	1.841
225.16	1.985
225.38	1.726
225.59	1.526
225.81	0.833
226.02	0.932
226.23	0.700
226.45	0.965
226.66	0.967
226.88	1.606
227.09	2.392
227.30	2.169
227.52	2.404
227.73	2.281
227.95	2.136
228.16	2.120
228.37	2.154
228.59	2.207
228.80	2.195
229.02	2.132
229.23	2.082
229.44	2.009
229.66	2.038
229.87	1.924
230.08	1.916
230.30	1.997
230.51	2.067
230.73	2.084
230.94	1.984
231.15	1.903
231.37	1.805
231.58	1.587
231.80	1.348
232.01	1.471
232.22	1.423
232.44	1.694
232.65	1.559
232.86	1.255
233.08	1.375
233.29	1.349
233.51	1.364
233.72	1.480
233.93	1.681
234.15	1.727
234.36	1.472
234.57	1.650
234.79	1.719
235.00	1.836
235.21	2.209
235.43	2.184
235.64	2.130
235.86	2.275
236.07	2.345
236.28	2.043
236.50	1.716
236.71	2.064
236.92	2.216
237.14	2.155
237.35	2.152
237.56	2.258
237.78	2.362
237.99	2.454
238.20	2.436
238.42	2.494
238.63	2.540
238.84	3.084
239.06	2.752
239.27	2.208
239.48	2.161
239.70	2.289
239.91	1.965
240.13	1.729
240.34	1.990
240.55	1.929
240.77	1.859
240.98	2.002
241.19	1.948
241.41	1.876
241.62	1.797
241.83	1.688
242.05	1.593
242.26	1.648
242.47	1.742
242.69	1.639
242.90	1.679
243.11	1.653
243.33	1.536
243.54	1.502
243.75	1.543
243.97	1.695
244.18	1.768
244.39	1.895
244.61	1.733
244.82	1.756
245.03	1.723
245.24	1.576
245.46	1.650
245.67	1.689
245.88	1.663
246.10	1.613
246.31	1.599
246.52	1.534
246.74	1.494
246.95	1.503
247.16	1.466
247.38	1.452
247.59	1.491
247.80	1.514
248.02	1.516
248.23	1.514
248.44	1.540
248.66	1.507
248.87	1.555
249.08	1.569
249.29	1.650
249.51	1.723
249.72	1.872
249.93	1.925
250.15	1.882
250.36	1.738
250.57	1.713
250.79	1.944
251.00	1.970
251.21	2.018
251.42	1.934
251.64	1.838
251.85	1.850
252.06	1.855
252.28	1.628
252.49	1.619
252.70	1.724
252.91	1.809
253.13	1.662
253.34	1.736
253.55	1.772
253.77	1.926
253.98	2.014
254.19	1.861
254.40	1.634
254.62	1.823
254.83	1.796
255.04	1.917
255.26	1.747
255.47	1.702
255.68	1.640
255.89	1.626
256.11	1.442
256.32	1.291
256.53	1.470
256.75	1.652
256.96	1.698
257.17	1.771
257.38	1.806
257.60	1.806
257.81	1.755
258.02	1.714
258.23	1.619
258.45	1.589
258.66	1.631
258.87	1.495
259.09	1.399
259.30	1.358
259.51	1.306
259.72	1.264
259.94	1.287
260.15	1.296
260.36	1.337
260.57	1.335
260.79	1.334
261.00	1.357
261.21	1.361
261.42	1.377
261.64	1.400
261.85	1.432
262.06	1.465
262.27	1.477
262.49	1.460
262.70	1.339
262.91	1.367
263.12	1.362
263.34	1.333
263.55	1.312
263.76	1.330
263.97	1.422
264.19	1.586
264.40	1.436
264.61	1.350
264.82	1.361
265.04	1.512
265.25	1.345
265.46	1.334
265.67	1.316
265.88	1.346
266.10	1.317
266.31	1.273
266.52	1.178
266.73	1.345
266.95	1.316
267.16	1.390
267.37	1.291
267.58	1.320
267.80	1.469
268.01	1.398
268.22	1.407
268.43	1.445
268.64	1.467
268.86	1.378
269.07	1.317
269.28	1.268
269.49	1.209
269.71	1.293
269.92	1.216
270.13	1.107
270.34	1.220
270.55	1.258
270.77	1.375
270.98	1.323
271.19	1.494
271.40	1.486
271.61	1.544
271.83	1.541
272.04	1.510
272.25	1.692
272.46	1.682
272.68	1.731
272.89	1.787
273.10	1.697
273.31	1.700
273.52	1.670
273.74	1.596
273.95	1.562
274.16	1.557
274.37	1.560
274.58	1.492
274.80	1.490
275.01	1.417
275.22	1.349
275.43	1.488
275.64	1.616
275.86	1.600
276.07	1.631
276.28	1.796
276.49	1.857
276.70	1.783
276.91	1.807
277.13	1.724
277.34	1.696
277.55	1.647
277.76	1.491
277.97	1.387
278.19	1.378
278.40	1.515
278.61	1.389
278.82	1.385
279.03	1.371
279.24	1.327
279.46	1.319
279.67	1.275
279.88	1.247
280.09	1.272
280.30	1.332
280.52	1.361
280.73	1.316
280.94	1.354
281.15	1.319
281.36	1.398
281.57	1.451
281.79	1.552
282.00	1.567
282.21	1.609
282.42	1.675
282.63	1.647
282.84	1.555
283.06	1.458
283.27	1.359
283.48	1.398
283.69	1.287
283.90	1.237
284.11	1.204
284.32	1.235
284.54	1.242
284.75	1.105
284.96	1.037
285.17	1.167
285.38	1.220
285.59	1.287
285.81	1.283
286.02	1.376
286.23	1.380
286.44	1.396
286.65	1.397
286.86	1.331
287.07	1.369
287.29	1.399
287.50	1.316
287.71	1.344
287.92	1.384
288.13	1.326
288.34	1.240
288.55	1.289
288.77	1.332
288.98	1.298
289.19	1.387
289.40	1.434
289.61	1.546
289.82	1.551
290.03	1.443
290.24	1.426
290.46	1.395
290.67	1.487
290.88	1.406
291.09	1.336
291.30	1.354
291.51	1.383
291.72	1.413
291.93	1.322
292.15	1.346
292.36	1.497
292.57	1.477
292.78	1.515
292.99	1.460
293.20	1.561
293.41	1.471
293.62	1.520
293.84	1.517
294.05	1.481
294.26	1.481
294.47	1.475
294.68	1.411
294.89	1.404
295.10	1.372
295.31	1.399
295.52	1.360
295.73	1.408
295.95	1.378
296.16	1.366
296.37	1.370
296.58	1.420
296.79	1.362
297.00	1.397
297.21	1.358
297.42	1.347
297.63	1.354
297.84	1.360
298.06	1.370
298.27	1.341
298.48	1.349
298.69	1.290
298.90	1.247
299.11	1.326
299.32	1.281
299.53	1.302
299.74	1.342
299.95	1.320
300.16	1.278
300.38	1.364
300.59	1.320
300.80	1.237
301.01	1.259
301.22	1.264
301.43	1.209
301.64	1.226
301.85	1.168
302.06	1.180
302.27	1.120
302.48	1.185
302.69	1.112
302.91	1.180
303.12	1.224
303.33	1.261
303.54	1.256
303.75	1.186
303.96	1.169
304.17	1.217
304.38	1.192
304.59	1.248
304.80	1.201
305.01	1.199
305.22	1.189
305.43	1.137
305.64	1.155
305.85	1.121
306.06	1.224
306.28	1.203
306.49	1.252
306.70	1.203
306.91	1.136
307.12	1.122
307.33	1.064
307.54	1.066
307.75	1.068
307.96	0.985
308.17	0.978
308.38	0.897
308.59	0.940
308.80	0.910
309.01	0.960
309.22	0.948
309.43	0.904
309.64	1.010
309.85	0.971
310.06	0.992
310.27	1.004
310.48	1.040
310.70	1.103
310.91	1.119
311.12	1.040
311.33	1.037
311.54	1.038
311.75	1.054
311.96	1.027
312.17	1.028
312.38	1.024
312.59	1.061
312.80	1.029
313.01	0.969
313.22	0.909
313.43	0.998
313.64	0.963
313.85	0.946
314.06	0.954
314.27	0.905
314.48	0.936
314.69	0.994
314.90	1.003
315.11	1.177
315.32	1.145
315.53	1.134
315.74	1.045
315.95	1.111
316.16	1.087
316.37	1.048
316.58	1.041
316.79	1.034
317.00	0.949
317.21	0.855
317.42	0.671
317.63	0.707
317.84	0.720
318.05	0.716
318.26	0.603
318.47	0.670
318.68	0.751
318.89	0.761
319.10	0.747
319.31	0.779
319.52	0.897
319.73	0.922
319.94	0.915
320.15	0.853
320.36	0.960
320.57	0.946
320.78	0.913
320.99	0.849
321.20	0.882
321.41	0.862
321.62	0.862
321.83	0.779
322.04	0.733
322.25	0.702
322.46	0.700
322.67	0.665
322.88	0.696
323.09	0.691
323.30	0.629
323.51	0.548
323.72	0.538
323.93	0.489
324.14	0.562
324.35	0.611
324.56	0.683
324.77	0.733
324.98	0.706
325.19	0.783
325.40	0.795
325.61	0.868
325.82	0.950
326.03	0.982
326.24	0.969
326.45	0.942
326.65	0.850
326.86	0.822
327.07	0.858
327.28	0.920
327.49	0.860
327.70	0.851
327.91	0.832
328.12	0.732
328.33	0.695
328.54	0.799
328.75	0.796
328.96	0.849
329.17	0.811
329.38	0.759
329.59	0.700
329.80	0.722
330.01	0.743
330.22	0.713
330.43	0.714
330.64	0.690
330.85	0.661
331.05	0.593
331.26	0.564
331.47	0.581
331.68	0.623
331.89	0.685
332.10	0.657
332.31	0.677
332.52	0.657
332.73	0.692
332.94	0.748
333.15	0.722
333.36	0.774
333.57	0.773
333.78	0.780
333.99	0.703
334.19	0.696
334.40	0.731
334.61	0.769
334.82	0.856
335.03	0.827
335.24	0.798
335.45	0.812
335.66	0.822
335.87	0.845
336.08	0.868
336.29	0.920
336.50	0.877
336.71	0.898
336.91	0.875
337.12	0.767
337.33	0.826
337.54	0.882
337.75	0.863
337.96	0.814
338.17	0.820
338.38	0.788
338.59	0.793
338.80	0.720
339.01	0.689
339.21	0.609
339.42	0.701
339.63	0.627
339.84	0.620
340.05	0.604
340.26	0.603
340.47	0.619
340.68	0.608
340.89	0.567
341.10	0.590
341.30	0.602
341.51	0.622
341.72	0.687
341.93	0.746
342.14	0.709
342.35	0.734
342.56	0.725
342.77	0.766
342.98	0.761
343.18	0.787
343.39	0.826
343.60	0.769
343.81	0.827
344.02	0.806
344.23	0.826
344.44	0.823
344.65	0.782
344.85	0.778
345.06	0.741
345.27	0.761
345.48	0.718
345.69	0.765
345.90	0.782
346.11	0.763
346.32	0.703
346.52	0.641
346.73	0.623
346.94	0.637
347.15	0.687
347.36	0.648
347.57	0.632
347.78	0.671
347.98	0.649
348.19	0.641
348.40	0.646
348.61	0.682
348.82	0.772
349.03	0.807
349.24	0.830
349.44	0.799
349.65	0.864
349.86	0.885
350.07	0.911
350.28	0.937
350.49	0.923
350.70	0.884
350.90	0.861
351.11	0.793
351.32	0.762
351.53	0.769
351.74	0.760
351.95	0.676
352.15	0.640
352.36	0.596
352.57	0.546
352.78	0.656
352.99	0.659
353.20	0.688
353.40	0.699
353.61	0.697
353.82	0.670
354.03	0.720
354.24	0.776
354.45	0.841
354.65	0.880
354.86	0.863
355.07	0.808
355.28	0.862
355.49	0.840
355.70	0.786
355.90	0.816
356.11	0.796
356.32	0.791
356.53	0.772
356.74	0.754
356.94	0.722
357.15	0.750
357.36	0.758
357.57	0.719
357.78	0.713
357.99	0.759
358.19	0.751
358.40	0.806
358.61	0.814
358.82	0.849
359.03	0.815
359.23	0.829
359.44	0.827
359.65	0.790
359.86	0.833
360.07	0.839
360.27	0.878
360.48	0.883
360.69	0.882
360.90	0.845
361.11	0.874
361.31	0.919
361.52	0.941
361.73	0.938
361.94	0.975
362.15	0.907
362.35	0.903
362.56	0.873
362.77	0.883
362.98	0.873
363.18	0.858
363.39	0.807
363.60	0.807
363.81	0.832
364.02	0.838
364.22	0.845
364.43	0.873
364.64	0.867
364.85	0.854
365.05	0.857
365.26	0.836
365.47	0.865
365.68	0.846
365.89	0.837
366.09	0.816
366.30	0.789
366.51	0.764
366.72	0.747
366.92	0.781
367.13	0.787
367.34	0.789
367.55	0.769
367.75	0.771
367.96	0.807
368.17	0.790
368.38	0.758
368.58	0.782
368.79	0.751
369.00	0.802
369.21	0.787
369.41	0.779
369.62	0.743
369.83	0.783
370.04	0.752
370.24	0.738
370.45	0.738
370.66	0.779
370.87	0.746
371.07	0.735
371.28	0.711
371.49	0.716
371.70	0.730
371.90	0.756
372.11	0.731
372.32	0.769
372.53	0.771
372.73	0.745
372.94	0.688
373.15	0.760
373.36	0.795
373.56	0.825
373.77	0.825
373.98	0.829
374.19	0.827
374.39	0.858
374.60	0.880
374.81	0.879
375.01	0.929
375.22	0.937
375.43	0.908
375.64	0.889
375.84	0.839
376.05	0.829
376.26	0.809
376.46	0.776
376.67	0.762
376.88	0.757
377.09	0.774
377.29	0.734
377.50	0.766
377.71	0.776
377.91	0.822
378.12	0.850
378.33	0.865
378.54	0.880
378.74	0.885
378.95	0.884
379.16	0.903
379.36	0.870
379.57	0.886
379.78	0.885
379.99	0.894
380.19	0.868
380.40	0.835
380.61	0.791
380.81	0.766
381.02	0.794
381.23	0.806
381.43	0.756
381.64	0.775
381.85	0.771
382.05	0.749
382.26	0.706
382.47	0.698
382.67	0.711
382.88	0.733
383.09	0.750
383.30	0.762
383.50	0.789
383.71	0.791
383.92	0.791
384.12	0.801
384.33	0.779
384.54	0.818
384.74	0.835
384.95	0.841
385.16	0.836
385.36	0.854
385.57	0.851
385.78	0.807
385.98	0.826
386.19	0.821
386.40	0.832
386.60	0.834
386.81	0.802
387.02	0.790
387.22	0.787
387.43	0.821
387.64	0.794
387.84	0.779
388.05	0.815
388.26	0.796
388.46	0.779
388.67	0.790
388.88	0.808
389.08	0.829
389.29	0.821
389.49	0.803
389.70	0.781
389.91	0.777
390.11	0.749
390.32	0.723
390.53	0.752
390.73	0.774
390.94	0.730
391.15	0.746
391.35	0.723
391.56	0.735
391.77	0.735
391.97	0.724
392.18	0.749
392.38	0.785
392.59	0.809
392.80	0.800
393.00	0.803
393.21	0.828
393.42	0.832
393.62	0.851
393.83	0.857
394.04	0.871
394.24	0.872
394.45	0.867
394.65	0.877
394.86	0.853
395.07	0.849
395.27	0.829
395.48	0.820
395.68	0.814
395.89	0.798
396.10	0.784
396.30	0.753
396.51	0.785
396.72	0.786
396.92	0.760
397.13	0.758
397.33	0.741
397.54	0.755
397.75	0.747
397.95	0.754
398.16	0.745
398.36	0.754
398.57	0.795
398.78	0.759
398.98	0.763
399.19	0.787
399.39	0.810
399.60	0.830
399.81	0.840
400.01	0.856
400.22	0.855
400.42	0.910
400.63	0.899
400.84	0.899
401.04	0.926
401.25	0.914
401.45	0.901
401.66	0.893
401.86	0.873
402.07	0.869
402.28	0.868
402.48	0.858
402.69	0.834
402.89	0.835
403.10	0.840
403.31	0.847
403.51	0.835
403.72	0.829
403.92	0.836
404.13	0.853
404.33	0.856
404.54	0.851
404.75	0.841
404.95	0.851
405.16	0.839
405.36	0.830
405.57	0.824
405.77	0.832
405.98	0.835
406.18	0.836
406.39	0.829
406.60	0.810
406.80	0.797
407.01	0.803
407.21	0.785
407.42	0.801
407.62	0.799
407.83	0.779
408.03	0.776
408.24	0.793
408.45	0.744
408.65	0.768
408.86	0.785
409.06	0.817
409.27	0.825
409.47	0.809
409.68	0.822
409.88	0.845
410.09	0.867
410.29	0.868
410.50	0.852
410.71	0.896
410.91	0.871
411.12	0.858
411.32	0.853
411.53	0.851
411.73	0.874
411.94	0.851
412.14	0.859
412.35	0.849
412.55	0.862
412.76	0.863
412.96	0.866
413.17	0.867
413.37	0.876
413.58	0.889
413.78	0.898
413.99	0.898
414.19	0.946
414.40	0.927
414.61	0.918
414.81	0.922
415.02	0.908
415.22	0.899
415.43	0.898
415.63	0.899
415.84	0.878
416.04	0.864
416.25	0.853
416.45	0.829
416.66	0.831
416.86	0.836
417.07	0.813
417.27	0.824
417.48	0.819
417.68	0.827
417.89	0.834
418.09	0.828
418.30	0.819
418.50	0.798
418.71	0.792
418.91	0.780
419.12	0.761
419.32	0.772
419.53	0.765
419.73	0.762
419.94	0.760
420.14	0.739
420.34	0.743
420.55	0.726
420.75	0.745
420.96	0.747
421.16	0.743
421.37	0.755
421.57	0.768
421.78	0.769
421.98	0.762
422.19	0.757
422.39	0.783
422.60	0.778
422.80	0.805
423.01	0.811
423.21	0.821
423.42	0.837
423.62	0.828
423.83	0.808
424.03	0.813
424.23	0.828
424.44	0.832
424.64	0.824
424.85	0.828
425.05	0.839
425.26	0.839
425.46	0.843
425.67	0.829
425.87	0.843
426.08	0.873
426.28	0.872
426.48	0.864
426.69	0.874
426.89	0.876
427.10	0.901
427.30	0.907
427.51	0.914
427.71	0.893
427.92	0.874
428.12	0.893
428.32	0.899
428.53	0.894
428.73	0.904
428.94	0.897
429.14	0.901
429.35	0.881
429.55	0.873
429.76	0.886
429.96	0.891
430.16	0.938
430.37	0.917
430.57	0.895
430.78	0.912
430.98	0.909
431.19	0.899
431.39	0.875
431.59	0.881
431.80	0.876
432.00	0.847
432.21	0.842
432.41	0.811
432.61	0.816
432.82	0.810
433.02	0.815
433.23	0.809
433.43	0.824
433.64	0.832
433.84	0.821
434.04	0.826
434.25	0.831
434.45	0.834
434.66	0.855
434.86	0.843
435.06	0.844
435.27	0.832
435.47	0.847
435.68	0.834
435.88	0.857
436.08	0.876
436.29	0.879
436.49	0.886
436.70	0.876
436.90	0.884
437.10	0.913
437.31	0.922
437.51	0.922
437.71	0.924
437.92	0.919
438.12	0.893
438.33	0.887
438.53	0.871
438.73	0.869
438.94	0.879
439.14	0.876
439.35	0.864
439.55	0.873
439.75	0.872
439.96	0.868
440.16	0.874
440.36	0.884
440.57	0.891
440.77	0.898
440.97	0.901
441.18	0.904
441.38	0.909
441.59	0.922
441.79	0.912
441.99	0.928
442.20	0.923
442.40	0.916
442.60	0.919
442.81	0.900
443.01	0.892
443.21	0.889
443.42	0.880
443.62	0.861
443.83	0.852
444.03	0.857
444.23	0.841
444.44	0.847
444.64	0.851
444.84	0.840
445.05	0.845
445.25	0.850
445.45	0.854
445.66	0.866
445.86	0.872
446.06	0.876
446.27	0.872
446.47	0.865
446.67	0.871
446.88	0.878
447.08	0.888
447.28	0.908
447.49	0.914
447.69	0.920
447.89	0.927
448.10	0.933
448.30	0.926
448.50	0.915
448.71	0.934
448.91	0.929
449.11	0.926
449.32	0.940
449.52	0.931
449.72	0.933
449.93	0.922
450.13	0.897
450.33	0.896
450.53	0.903
450.74	0.922
450.94	0.907
451.14	0.913
451.35	0.918
451.55	0.913
451.75	0.901
451.96	0.895
452.16	0.899
452.36	0.909
452.57	0.921
452.77	0.928
452.97	0.923
453.17	0.927
453.38	0.937
453.58	0.924
453.78	0.908
453.99	0.914
454.19	0.930
454.39	0.927
454.59	0.936
454.80	0.921
455.00	0.923
455.20	0.925
455.41	0.909
455.61	0.905
455.81	0.931
456.01	0.959
456.22	0.968
456.42	0.953
456.62	0.963
456.83	0.960
457.03	0.952
457.23	0.930
457.43	0.935
457.64	0.969
457.84	0.954
458.04	0.930
458.25	0.925
458.45	0.915
458.65	0.903
458.85	0.899
459.06	0.891
459.26	0.889
459.46	0.891
459.66	0.897
459.87	0.886
460.07	0.892
460.27	0.896
460.47	0.891
460.68	0.901
460.88	0.904
461.08	0.905
461.28	0.914
461.49	0.926
461.69	0.934
461.89	0.934
462.09	0.940
462.30	0.941
462.50	0.948
462.70	0.963
462.90	0.954
463.11	0.979
463.31	0.986
463.51	0.988
463.71	0.990
463.92	0.999
464.12	0.987
464.32	0.981
464.52	0.970
464.72	0.963
464.93	0.942
465.13	0.942
465.33	0.934
465.53	0.922
465.74	0.923
465.94	0.915
466.14	0.908
466.34	0.910
466.54	0.908
466.75	0.912
466.95	0.906
467.15	0.921
467.35	0.908
467.56	0.909
467.76	0.922
467.96	0.922
468.16	0.927
468.36	0.931
468.57	0.940
468.77	0.949
468.97	0.956
469.17	0.962
469.37	0.948
469.58	0.968
469.78	0.975
469.98	0.973
470.18	0.968
470.38	0.966
470.59	0.961
470.79	0.956
470.99	0.955
471.19	0.955
471.39	0.961
471.60	0.958
471.80	0.938
472.00	0.931
472.20	0.937
472.40	0.940
472.61	0.941
472.81	0.943
473.01	0.938
473.21	0.942
473.41	0.936
473.61	0.933
473.82	0.969
474.02	0.984
474.22	0.982
474.42	0.981
474.62	0.995
474.82	0.994
475.03	1.017
475.23	1.013
475.43	1.030
475.63	1.039
475.83	1.038
476.03	1.012
476.24	1.007
476.44	1.017
476.64	1.010
476.84	0.998
477.04	0.998
477.24	0.977
477.45	0.987
477.65	0.984
477.85	0.988
478.05	0.975
478.25	0.965
478.45	0.964
478.65	0.969
478.86	0.980
479.06	0.971
479.26	0.987
479.46	0.998
479.66	0.996
479.86	0.979
480.06	0.978
480.27	0.981
480.47	0.991
480.67	0.985
480.87	0.977
481.07	0.968
481.27	0.987
481.47	0.991
481.68	0.986
481.88	0.985
482.08	0.994
482.28	0.990
482.48	0.992
482.68	0.984
482.88	0.980
483.08	0.977
483.29	0.974
483.49	0.960
483.69	0.946
483.89	0.949
484.09	0.952
484.29	0.950
484.49	0.953
484.69	0.954
484.89	0.958
485.10	0.965
485.30	0.970
485.50	0.980
485.70	0.996
485.90	1.014
486.10	1.012
486.30	1.016
486.50	1.017
486.70	1.010
486.90	1.007
487.11	1.001
487.31	1.001
487.51	0.991
487.71	0.988
487.91	0.990
488.11	0.991
488.31	0.995
488.51	0.992
488.71	0.996
488.91	1.004
489.11	1.014
489.32	1.031
489.52	1.032
489.72	1.052
489.92	1.048
490.12	1.052
490.32	1.051
490.52	1.046
490.72	1.048
490.92	1.033
491.12	1.019
491.32	1.014
491.52	1.006
491.72	1.003
491.92	1.002
492.13	1.006
492.33	1.004
492.53	1.009
492.73	1.013
492.93	1.022
493.13	1.045
493.33	1.063
493.53	1.072
493.73	1.072
493.93	1.073
494.13	1.068
494.33	1.062
494.53	1.077
494.73	1.075
494.93	1.080
495.13	1.071
495.33	1.058
495.53	1.040
495.73	1.032
495.94	1.049
496.14	1.053
496.34	1.054
496.54	1.058
496.74	1.046
496.94	1.050
497.14	1.033
497.34	1.039
497.54	1.031
497.74	1.038
497.94	1.047
498.14	1.040
498.34	1.051
498.54	1.059
498.74	1.058
498.94	1.060
499.14	1.051
499.34	1.055
499.54	1.049
499.74	1.065
499.94	1.071
500.14	1.069
500.34	1.081
500.54	1.078
500.74	1.072
500.94	1.089
501.14	1.103
501.34	1.109
501.54	1.114
501.74	1.103
501.94	1.089
502.14	1.093
502.34	1.096
502.54	1.080
502.74	1.084
502.94	1.082
503.14	1.072
503.34	1.054
503.54	1.065
503.74	1.062
503.94	1.081
504.14	1.087
504.34	1.089
504.54	1.092
504.74	1.097
504.94	1.093
505.14	1.100
505.34	1.105
505.54	1.122
505.74	1.112
505.94	1.131
506.14	1.131
506.34	1.142
506.54	1.144
506.74	1.138
506.94	1.133
507.14	1.126
507.34	1.109
507.54	1.103
507.74	1.081
507.94	1.084
508.14	1.079
508.34	1.071
508.54	1.068
508.74	1.074
508.94	1.080
509.13	1.086
509.33	1.096
509.53	1.107
509.73	1.106
509.93	1.116
510.13	1.116
510.33	1.113
510.53	1.118
510.73	1.121
510.93	1.117
511.13	1.111
511.33	1.114
511.53	1.114
511.73	1.116
511.93	1.126
512.13	1.130
512.33	1.135
512.53	1.134
512.73	1.137
512.92	1.140
513.12	1.142
513.32	1.155
513.52	1.160
513.72	1.162
513.92	1.165
514.12	1.167
514.32	1.161
514.52	1.161
514.72	1.164
514.92	1.158
515.12	1.168
515.32	1.152
515.52	1.136
515.71	1.138
515.91	1.125
516.11	1.121
516.31	1.119
516.51	1.125
516.71	1.131
516.91	1.134
517.11	1.139
517.31	1.117
517.51	1.124
517.71	1.129
517.90	1.133
518.10	1.140
518.30	1.142
518.50	1.135
518.70	1.141
518.90	1.135
519.10	1.138
519.30	1.133
519.50	1.148
519.69	1.155
519.89	1.160
520.09	1.149
520.29	1.157
520.49	1.161
520.69	1.180
520.89	1.180
521.09	1.180
521.29	1.183
521.48	1.198
521.68	1.185
521.88	1.182
522.08	1.189
522.28	1.205
522.48	1.194
522.68	1.202
522.88	1.185
523.07	1.191
523.27	1.200
523.47	1.204
523.67	1.199
523.87	1.207
524.07	1.205
524.27	1.201
524.47	1.192
524.66	1.203
524.86	1.196
525.06	1.201
525.26	1.198
525.46	1.201
525.66	1.201
525.85	1.198
526.05	1.200
526.25	1.195
526.45	1.187
526.65	1.194
526.85	1.197
527.05	1.203
527.24	1.203
527.44	1.192
527.64	1.179
527.84	1.165
528.04	1.159
528.24	1.155
528.43	1.163
528.63	1.173
528.83	1.170
529.03	1.170
529.23	1.171
529.43	1.176
529.62	1.184
529.82	1.191
530.02	1.206
530.22	1.224
530.42	1.238
530.62	1.241
530.81	1.249
531.01	1.259
531.21	1.262
531.41	1.260
531.61	1.258
531.80	1.256
532.00	1.256
532.20	1.249
532.40	1.241
532.60	1.237
532.79	1.235
532.99	1.221
533.19	1.226
533.39	1.225
533.59	1.233
533.78	1.228
533.98	1.230
534.18	1.241
534.38	1.252
534.58	1.267
534.77	1.269
534.97	1.276
535.17	1.294
535.37	1.287
535.57	1.288
535.76	1.276
535.96	1.273
536.16	1.271
536.36	1.259
536.56	1.249
536.75	1.240
536.95	1.248
537.15	1.249
537.35	1.247
537.54	1.255
537.74	1.250
537.94	1.258
538.14	1.273
538.34	1.280
538.53	1.295
538.73	1.301
538.93	1.297
539.13	1.303
539.32	1.319
539.52	1.313
539.72	1.308
539.92	1.308
540.11	1.289
540.31	1.274
540.51	1.260
540.71	1.241
540.90	1.234
541.10	1.234
541.30	1.231
541.50	1.227
541.69	1.230
541.89	1.233
542.09	1.241
542.29	1.249
542.48	1.253
542.68	1.264
542.88	1.274
543.08	1.289
543.27	1.295
543.47	1.297
543.67	1.300
543.87	1.305
544.06	1.302
544.26	1.307
544.46	1.313
544.65	1.325
544.85	1.323
545.05	1.340
545.25	1.343
545.44	1.341
545.64	1.345
545.84	1.340
546.04	1.333
546.23	1.335
546.43	1.322
546.63	1.321
546.82	1.314
547.02	1.317
547.22	1.318
547.42	1.314
547.61	1.322
547.81	1.323
548.01	1.330
548.20	1.332
548.40	1.332
548.60	1.345
548.79	1.339
548.99	1.346
549.19	1.349
549.39	1.335
549.58	1.338
549.78	1.335
549.98	1.339
550.17	1.340
550.37	1.335
550.57	1.335
550.76	1.322
550.96	1.330
551.16	1.332
551.35	1.330
551.55	1.328
551.75	1.323
551.94	1.313
552.14	1.311
552.34	1.290
552.53	1.308
552.73	1.310
552.93	1.315
553.13	1.318
553.32	1.315
553.52	1.319
553.72	1.329
553.91	1.336
554.11	1.349
554.31	1.357
554.50	1.370
554.70	1.361
554.89	1.379
555.09	1.394
555.29	1.391
555.48	1.392
555.68	1.394
555.88	1.394
556.07	1.391
556.27	1.395
556.47	1.393
556.66	1.406
556.86	1.408
557.06	1.391
557.25	1.379
557.45	1.381
557.65	1.382
557.84	1.377
558.04	1.379
558.23	1.373
558.43	1.371
558.63	1.375
558.82	1.364
559.02	1.357
559.22	1.360
559.41	1.368
559.61	1.371
559.81	1.382
560.00	1.393
560.20	1.402
560.39	1.413
560.59	1.404
560.79	1.400
560.98	1.419
561.18	1.432
561.37	1.444
561.57	1.456
561.77	1.454
561.96	1.451
562.16	1.447
562.36	1.451
562.55	1.453
562.75	1.462
562.94	1.473
563.14	1.453
563.34	1.446
563.53	1.443
563.73	1.429
563.92	1.442
564.12	1.432
564.32	1.426
564.51	1.417
564.71	1.407
564.90	1.409
565.10	1.393
565.29	1.417
565.49	1.421
565.69	1.416
565.88	1.404
566.08	1.398
566.27	1.408
566.47	1.414
566.67	1.412
566.86	1.432
567.06	1.439
567.25	1.451
567.45	1.439
567.64	1.448
567.84	1.453
568.04	1.476
568.23	1.477
568.43	1.483
568.62	1.486
568.82	1.486
569.01	1.479
569.21	1.469
569.41	1.474
569.60	1.480
569.80	1.475
569.99	1.467
570.19	1.461
570.38	1.456
570.58	1.454
570.77	1.467
570.97	1.478
571.17	1.472
571.36	1.488
571.56	1.472
571.75	1.468
571.95	1.467
572.14	1.480
572.34	1.492
572.53	1.509
572.73	1.516
572.92	1.515
573.12	1.518
573.31	1.516
573.51	1.509
573.70	1.512
573.90	1.517
574.10	1.518
574.29	1.520
574.49	1.512
574.68	1.502
574.88	1.489
575.07	1.482
575.27	1.484
575.46	1.482
575.66	1.488
575.85	1.504
576.05	1.504
576.24	1.508
576.44	1.497
576.63	1.497
576.83	1.508
577.02	1.526
577.22	1.525
577.41	1.544
577.61	1.556
577.80	1.552
578.00	1.548
578.19	1.548
578.39	1.552
578.58	1.555
578.78	1.553
578.97	1.560
579.17	1.559
579.36	1.545
579.56	1.527
579.75	1.523
579.95	1.522
580.14	1.519
580.34	1.532
580.53	1.536
580.73	1.534
580.92	1.534
581.12	1.512
581.31	1.510
581.51	1.525
581.70	1.536
581.89	1.538
582.09	1.534
582.28	1.532
582.48	1.521
582.67	1.525
582.87	1.547
583.06	1.557
583.26	1.570
583.45	1.556
583.65	1.558
583.84	1.550
584.04	1.559
584.23	1.565
584.43	1.575
584.62	1.575
584.81	1.584
585.01	1.573
585.20	1.576
585.40	1.578
585.59	1.588
585.79	1.600
585.98	1.610
586.18	1.607
586.37	1.593
586.56	1.593
586.76	1.582
586.95	1.567
587.15	1.568
587.34	1.571
587.54	1.556
587.73	1.560
587.92	1.548
588.12	1.543
588.31	1.541
588.51	1.563
588.70	1.576
588.90	1.593
589.09	1.599
589.28	1.597
589.48	1.585
589.67	1.604
589.87	1.610
590.06	1.608
590.25	1.611
590.45	1.612
590.64	1.616
590.84	1.622
591.03	1.623
591.23	1.618
591.42	1.623
591.61	1.637
591.81	1.639
592.00	1.630
592.20	1.648
592.39	1.635
592.58	1.642
592.78	1.632
592.97	1.628
593.17	1.628
593.36	1.627
593.55	1.637
593.75	1.649
593.94	1.637
594.13	1.646
594.33	1.637
594.52	1.644
594.72	1.651
594.91	1.661
595.10	1.654
595.30	1.637
595.49	1.649
595.68	1.658
595.88	1.644
596.07	1.652
596.27	1.649
596.46	1.649
596.65	1.659
596.85	1.650
597.04	1.655
597.23	1.662
597.43	1.679
597.62	1.685
597.81	1.672
598.01	1.680
598.20	1.691
598.40	1.703
598.59	1.708
598.78	1.720
598.98	1.731
599.17	1.747
599.36	1.724
599.56	1.741
599.75	1.731
599.94	1.749
600.14	1.744
600.33	1.750
600.52	1.731
600.72	1.756
600.91	1.746
601.10	1.740
601.30	1.716
601.49	1.753
601.68	1.746
601.88	1.755
602.07	1.738
602.26	1.748
602.46	1.731
602.65	1.742
602.84	1.749
603.04	1.743
603.23	1.754
603.42	1.764
603.62	1.772
603.81	1.774
604.00	1.777
604.20	1.779
604.39	1.781
604.58	1.780
604.77	1.791
604.97	1.785
605.16	1.778
605.35	1.781
605.55	1.787
605.74	1.772
605.93	1.782
606.13	1.810
606.32	1.807
606.51	1.816
606.70	1.839
606.90	1.832
607.09	1.838
607.28	1.864
607.48	1.866
607.67	1.843
607.86	1.835
608.05	1.832
608.25	1.803
608.44	1.806
608.63	1.796
608.83	1.798
609.02	1.804
609.21	1.788
609.40	1.786
609.60	1.801
609.79	1.814
609.98	1.826
610.17	1.829
610.37	1.826
610.56	1.850
610.75	1.854
610.95	1.855
611.14	1.857
611.33	1.873
611.52	1.882
611.72	1.865
611.91	1.871
612.10	1.882
612.29	1.885
612.49	1.879
612.68	1.870
612.87	1.878
613.06	1.871
613.26	1.887
613.45	1.881
613.64	1.880
613.83	1.883
614.03	1.873
614.22	1.870
614.41	1.878
614.60	1.893
614.79	1.886
614.99	1.902
615.18	1.893
615.37	1.890
615.56	1.887
615.76	1.892
615.95	1.904
616.14	1.914
616.33	1.907
616.53	1.899
616.72	1.904
616.91	1.910
617.10	1.893
617.29	1.906
617.49	1.898
617.68	1.907
617.87	1.900
618.06	1.893
618.25	1.904
618.45	1.921
618.64	1.915
618.83	1.922
619.02	1.941
619.21	1.949
619.41	1.948
619.60	1.967
619.79	1.956
619.98	1.961
620.17	1.977
620.37	1.971
620.56	1.962
620.75	1.971
620.94	1.984
621.13	1.981
621.33	1.975
621.52	1.970
621.71	1.959
621.90	1.989
622.09	1.967
622.28	1.968
622.48	1.960
622.67	1.967
622.86	1.969
623.05	1.954
623.24	1.923
623.44	1.931
623.63	1.942
623.82	1.944
624.01	1.929
624.20	1.930
624.39	1.929
624.59	1.937
624.78	1.941
624.97	1.962
625.16	1.958
625.35	1.973
625.54	1.968
625.73	1.968
625.93	1.950
626.12	1.959
626.31	1.979
626.50	1.974
626.69	1.982
626.88	1.987
627.07	1.985
627.27	1.999
627.46	2.020
627.65	2.030
627.84	2.030
628.03	2.050
628.22	2.056
628.41	2.059
628.61	2.075
628.80	2.067
628.99	2.068
629.18	2.057
629.37	2.055
629.56	2.052
629.75	2.048
629.94	2.065
630.14	2.074
630.33	2.082
630.52	2.091
630.71	2.076
630.90	2.098
631.09	2.105
631.28	2.101
631.47	2.085
631.66	2.083
631.86	2.094
632.05	2.089
632.24	2.083
632.43	2.064
632.62	2.064
632.81	2.079
633.00	2.076
633.19	2.072
633.38	2.084
633.57	2.102
633.77	2.094
633.96	2.118
634.15	2.103
634.34	2.118
634.53	2.122
634.72	2.106
634.91	2.102
635.10	2.098
635.29	2.108
635.48	2.125
635.67	2.120
635.86	2.128
636.05	2.123
636.25	2.149
636.44	2.131
636.63	2.151
636.82	2.193
637.01	2.200
637.20	2.212
637.39	2.208
637.58	2.198
637.77	2.217
637.96	2.240
638.15	2.222
638.34	2.212
638.53	2.226
638.72	2.211
638.91	2.203
639.10	2.224
639.30	2.213
639.49	2.220
639.68	2.228
639.87	2.231
640.06	2.213
640.25	2.213
640.44	2.228
640.63	2.239
640.82	2.232
641.01	2.235
641.20	2.207
641.39	2.218
641.58	2.221
641.77	2.233
641.96	2.238
642.15	2.239
642.34	2.251
642.53	2.251
642.72	2.253
642.91	2.262
643.10	2.241
643.29	2.260
643.48	2.272
643.67	2.252
643.86	2.245
644.05	2.265
644.24	2.291
644.43	2.297
644.62	2.304
644.81	2.262
645.00	2.269
645.19	2.298
645.38	2.287
645.57	2.282
645.76	2.287
645.95	2.286
646.14	2.260
646.33	2.268
646.52	2.244
646.71	2.258
646.90	2.307
647.09	2.321
647.28	2.311
647.47	2.290
647.66	2.295
647.85	2.331
648.04	2.330
648.23	2.338
648.42	2.317
648.61	2.331
648.80	2.304
648.99	2.293
649.18	2.286
649.37	2.291
649.56	2.304
649.75	2.267
649.94	2.248
650.13	2.246
650.32	2.251
650.51	2.245
650.70	2.253
650.89	2.272
651.08	2.291
651.27	2.305
651.46	2.306
651.65	2.338
651.83	2.389
652.02	2.399
652.21	2.394
652.40	2.408
652.59	2.437
652.78	2.452
652.97	2.455
653.16	2.430
653.35	2.422
653.54	2.453
653.73	2.477
653.92	2.464
654.11	2.463
654.30	2.494
654.49	2.482
654.68	2.466
654.86	2.477
655.05	2.482
655.24	2.486
655.43	2.472
655.62	2.435
655.81	2.389
656.00	2.401
656.19	2.409
656.38	2.391
656.57	2.399
656.76	2.398
656.95	2.387
657.13	2.370
657.32	2.386
657.51	2.395
657.70	2.417
657.89	2.454
658.08	2.455
658.27	2.447
658.46	2.441
658.65	2.454
658.84	2.453
659.02	2.468
659.21	2.501
659.40	2.513
659.59	2.549
659.78	2.553
659.97	2.546
660.16	2.546
660.35	2.537
660.54	2.555
660.72	2.555
660.91	2.560
661.10	2.566
661.29	2.564
661.48	2.574
661.67	2.565
661.86	2.571
662.05	2.559
662.23	2.543
662.42	2.568
662.61	2.590
662.80	2.571
662.99	2.587
663.18	2.593
663.37	2.575
663.56	2.547
663.74	2.524
663.93	2.520
664.12	2.550
664.31	2.586
664.50	2.592
664.69	2.597
664.87	2.635
665.06	2.619
665.25	2.607
665.44	2.604
665.63	2.627
665.82	2.641
666.01	2.644
666.19	2.637
666.38	2.628
666.57	2.633
666.76	2.629
666.95	2.580
667.14	2.603
667.32	2.624
667.51	2.650
667.70	2.631
667.89	2.642
668.08	2.642
668.26	2.670
668.45	2.653
668.64	2.648
668.83	2.645
669.02	2.697
669.21	2.677
669.39	2.675
669.58	2.678
669.77	2.692
669.96	2.706
670.15	2.739
670.33	2.715
670.52	2.737
670.71	2.733
670.90	2.738
671.09	2.718
671.27	2.751
671.46	2.726
671.65	2.737
671.84	2.750
672.03	2.770
672.21	2.763
672.40	2.764
672.59	2.758
672.78	2.791
672.96	2.784
673.15	2.816
673.34	2.815
673.53	2.812
673.72	2.786
673.90	2.777
674.09	2.767
674.28	2.765
674.47	2.786
674.65	2.797
674.84	2.774
675.03	2.816
675.22	2.787
675.41	2.813
675.59	2.826
675.78	2.840
675.97	2.858
676.16	2.846
676.34	2.845
676.53	2.831
676.72	2.818
676.91	2.844
677.09	2.843
677.28	2.862
677.47	2.850
677.66	2.866
677.84	2.865
678.03	2.882
678.22	2.913
678.41	2.916
678.59	2.952
678.78	2.971
678.97	2.957
679.15	2.972
679.34	2.985
679.53	2.998
679.72	3.011
679.90	3.008
680.09	2.989
680.28	2.981
680.47	2.964
680.65	2.930
680.84	2.933
681.03	2.952
681.21	2.918
681.40	2.895
681.59	2.914
681.78	2.928
681.96	2.954
682.15	2.968
682.34	2.965
682.52	2.952
682.71	2.959
682.90	2.952
683.08	2.974
683.27	2.992
683.46	3.008
683.65	2.961
683.83	2.944
684.02	2.936
684.21	2.913
684.39	2.906
684.58	2.962
684.77	3.000
684.95	3.011
685.14	2.984
685.33	2.999
685.51	3.015
685.70	3.030
685.89	3.028
686.07	3.044
686.26	3.071
686.45	3.089
686.63	3.068
686.82	3.063
687.01	3.062
687.20	3.067
687.38	3.070
687.57	3.058
687.75	3.078
687.94	3.101
688.13	3.107
688.31	3.086
688.50	3.110
688.69	3.141
688.87	3.129
689.06	3.140
689.25	3.154
689.43	3.140
689.62	3.167
689.81	3.180
689.99	3.171
690.18	3.175
690.37	3.201
690.55	3.205
690.74	3.187
690.93	3.208
691.11	3.205
691.30	3.211
691.48	3.243
691.67	3.228
691.86	3.241
692.04	3.267
692.23	3.278
692.42	3.316
692.60	3.312
692.79	3.288
692.97	3.290
693.16	3.333
693.35	3.335
693.53	3.306
693.72	3.294
693.90	3.272
694.09	3.266
694.28	3.266
694.46	3.231
694.65	3.201
694.83	3.273
695.02	3.264
695.21	3.247
695.39	3.253
695.58	3.283
695.76	3.310
695.95	3.331
696.14	3.333
696.32	3.320
696.51	3.318
696.69	3.370
696.88	3.367
697.07	3.374
697.25	3.370
697.44	3.371
697.62	3.338
697.81	3.344
697.99	3.322
698.18	3.300
698.37	3.313
698.55	3.335
698.74	3.318
698.92	3.316
699.11	3.316
699.29	3.320
699.48	3.332
699.67	3.357
699.85	3.361
700.04	3.375
700.22	3.428
700.41	3.456
700.59	3.475
700.78	3.462
700.96	3.468
701.15	3.488
701.34	3.496
701.52	3.488
701.71	3.498
701.89	3.538
702.08	3.553
702.26	3.497
702.45	3.463
702.63	3.422
702.82	3.463
703.00	3.478
703.19	3.462
703.38	3.488
703.56	3.496
703.75	3.516
703.93	3.501
704.12	3.536
704.30	3.573
704.49	3.586
704.67	3.631
704.86	3.647
705.04	3.627
705.23	3.657
705.41	3.641
705.60	3.643
705.78	3.635
705.97	3.640
706.15	3.610
706.34	3.621
706.52	3.635
706.71	3.637
706.89	3.617
707.08	3.621
707.26	3.636
707.45	3.651
707.63	3.658
707.82	3.636
708.00	3.598
708.19	3.609
708.37	3.607
708.56	3.611
708.74	3.604
708.93	3.640
709.11	3.680
709.30	3.698
709.48	3.674
709.67	3.688
709.85	3.712
710.04	3.766
710.22	3.819
710.41	3.795
710.59	3.788
710.77	3.807
710.96	3.768
711.14	3.748
711.33	3.751
711.51	3.794
711.70	3.776
711.88	3.790
712.07	3.790
712.25	3.748
712.44	3.772
712.62	3.771
712.80	3.758
712.99	3.783
713.17	3.760
713.36	3.744
713.54	3.756
713.73	3.758
713.91	3.768
714.10	3.716
714.28	3.713
714.46	3.743
714.65	3.777
714.83	3.792
715.02	3.824
715.20	3.886
715.39	3.897
715.57	3.887
715.75	3.923
715.94	3.912
716.12	3.973
716.31	3.983
716.49	3.966
716.68	3.943
716.86	3.965
717.04	3.947
717.23	3.955
717.41	3.989
717.60	3.985
717.78	4.013
717.96	3.992
718.15	3.968
718.33	3.936
718.52	3.962
718.70	4.003
718.88	3.996
719.07	4.029
719.25	3.963
719.44	3.934
719.62	3.946
719.80	3.920
719.99	3.956
720.17	3.933
720.36	3.968
720.54	3.951
720.72	3.970
720.91	3.951
721.09	3.919
721.27	3.942
721.46	3.928
721.64	3.918
721.83	3.925
722.01	3.907
722.19	3.966
722.38	3.975
722.56	3.989
722.74	3.947
722.93	3.979
723.11	3.987
723.30	4.012
723.48	4.031
723.66	4.011
723.85	4.073
724.03	4.094
724.21	4.103
724.40	4.082
724.58	4.132
724.76	4.142
724.95	4.115
725.13	4.189
725.31	4.218
725.50	4.266
725.68	4.272
725.86	4.255
726.05	4.293
726.23	4.265
726.41	4.336
726.60	4.293
726.78	4.317
726.96	4.365
727.15	4.296
727.33	4.284
727.51	4.265
727.70	4.326
727.88	4.311
728.06	4.321
728.25	4.318
728.43	4.241
728.61	4.311
728.80	4.298
728.98	4.327
729.16	4.347
729.34	4.336
729.53	4.354
729.71	4.356
729.89	4.348
730.08	4.331
730.26	4.346
730.44	4.431
730.63	4.404
730.81	4.472
730.99	4.463
731.17	4.498
731.36	4.501
731.54	4.432
731.72	4.461
731.91	4.477
732.09	4.480
732.27	4.508
732.45	4.494
732.64	4.474
732.82	4.413
733.00	4.413
733.19	4.379
733.37	4.389
733.55	4.444
733.73	4.409
733.92	4.418
734.10	4.440
734.28	4.432
734.46	4.476
734.65	4.496
734.83	4.558
735.01	4.550
735.19	4.584
735.38	4.591
735.56	4.613
735.74	4.636
735.92	4.605
736.11	4.581
736.29	4.625
736.47	4.600
736.65	4.571
736.84	4.533
737.02	4.557
737.20	4.550
737.38	4.570
737.57	4.564
737.75	4.590
737.93	4.617
738.11	4.642
738.30	4.614
738.48	4.616
738.66	4.622
738.84	4.646
739.02	4.639
739.21	4.668
739.39	4.670
739.57	4.699
739.75	4.682
739.93	4.683
740.12	4.665
740.30	4.701
740.48	4.661
740.66	4.688
740.85	4.703
741.03	4.699
741.21	4.708
741.39	4.771
741.57	4.741
741.76	4.778
741.94	4.775
742.12	4.798
742.30	4.811
742.48	4.863
742.66	4.827
742.85	4.809
743.03	4.858
743.21	4.837
743.39	4.799
743.57	4.818
743.76	4.794
743.94	4.843
744.12	4.823
744.30	4.822
744.48	4.815
744.66	4.883
744.85	4.903
745.03	4.887
745.21	4.959
745.39	4.973
745.57	5.029
745.75	5.021
745.94	5.030
746.12	5.092
746.30	5.076
746.48	5.108
746.66	5.069
746.84	4.993
747.02	4.935
747.21	4.869
747.39	4.858
747.57	4.858
747.75	4.900
747.93	4.920
748.11	4.962
748.29	4.985
748.48	4.957
748.66	5.065
748.84	5.133
749.02	5.197
749.20	5.250
749.38	5.206
749.56	5.157
749.75	5.183
749.93	5.157
750.11	5.158
750.29	5.120
750.47	5.192
750.65	5.115
750.83	5.104
751.01	5.107
751.19	5.098
751.38	5.154
751.56	5.175
751.74	5.174
751.92	5.172
752.10	5.115
752.28	5.189
752.46	5.185
752.64	5.196
752.82	5.227
753.00	5.277
753.19	5.246
753.37	5.235
753.55	5.260
753.73	5.171
753.91	5.179
754.09	5.156
754.27	5.105
754.45	5.056
754.63	5.104
754.81	5.102
754.99	5.086
755.17	5.203
755.36	5.265
755.54	5.305
755.72	5.383
755.90	5.430
756.08	5.490
756.26	5.568
756.44	5.587
756.62	5.559
756.80	5.599
756.98	5.552
757.16	5.478
757.34	5.527
757.52	5.521
757.70	5.549
757.88	5.550
758.06	5.539
758.24	5.483
758.42	5.501
758.61	5.535
758.79	5.493
758.97	5.491
759.15	5.453
759.33	5.391
759.51	5.396
759.69	5.381
759.87	5.411
760.05	5.446
760.23	5.439
760.41	5.482
760.59	5.425
760.77	5.500
760.95	5.519
761.13	5.569
761.31	5.611
761.49	5.642
761.67	5.672
761.85	5.637
762.03	5.599
762.21	5.616
762.39	5.584
762.57	5.657
762.75	5.633
762.93	5.632
763.11	5.591
763.29	5.575
763.47	5.533
763.65	5.511
763.83	5.489
764.01	5.498
764.19	5.531
764.37	5.564
764.55	5.520
764.73	5.530
764.91	5.552
765.09	5.587
765.27	5.555
765.45	5.578
765.63	5.605
765.81	5.676
765.99	5.676
766.17	5.677
766.35	5.660
766.53	5.719
766.71	5.697
766.89	5.741
767.07	5.769
767.25	5.840
767.43	5.830
767.61	5.865
767.78	5.818
767.96	5.837
768.14	5.780
768.32	5.830
768.50	5.876
768.68	5.895
768.86	5.864
769.04	5.867
769.22	5.895
769.40	5.929
769.58	5.941
769.76	5.999
769.94	6.046
770.12	6.119
770.30	6.063
770.48	5.993
770.66	6.063
770.84	6.054
771.01	6.052
771.19	5.956
771.37	5.980
771.55	5.939
771.73	5.847
771.91	5.874
772.09	5.896
772.27	5.913
772.45	5.949
772.63	5.902
772.81	5.879
772.99	5.832
773.16	5.907
773.34	5.966
773.52	6.043
773.70	6.135
773.88	6.145
774.06	6.115
774.24	6.108
774.42	6.136
774.60	6.204
774.78	6.230
774.95	6.299
775.13	6.313
775.31	6.240
775.49	6.283
775.67	6.306
775.85	6.259
776.03	6.282
776.21	6.313
776.38	6.242
776.56	6.233
776.74	6.244
776.92	6.260
777.10	6.320
777.28	6.369
777.46	6.305
777.64	6.311
777.81	6.338
777.99	6.324
778.17	6.329
778.35	6.401
778.53	6.438
778.71	6.577
778.89	6.604
779.06	6.593
779.24	6.597
779.42	6.500
779.60	6.444
779.78	6.497
779.96	6.571
780.13	6.618
780.31	6.727
780.49	6.674
780.67	6.519
780.85	6.492
781.03	6.510
781.20	6.396
781.38	6.470
781.56	6.488
781.74	6.551
781.92	6.530
782.10	6.486
782.27	6.443
782.45	6.429
782.63	6.355
782.81	6.414
782.99	6.355
783.17	6.503
783.34	6.526
783.52	6.576
783.70	6.492
783.88	6.458
784.06	6.557
784.23	6.511
784.41	6.589
784.59	6.762
784.77	6.742
784.95	6.887
785.12	6.779
785.30	6.804
785.48	6.812
785.66	6.858
785.83	6.871
786.01	6.897
786.19	6.852
786.37	6.736
786.55	6.684
786.72	6.642
786.90	6.571
787.08	6.700
787.26	6.735
787.43	6.808
787.61	6.763
787.79	6.782
787.97	6.704
788.15	6.795
788.32	6.817
788.50	6.910
788.68	6.947
788.86	6.941
789.03	6.929
789.21	6.915
789.39	6.882
789.57	6.981
789.74	7.057
789.92	7.129
790.10	7.096
790.28	7.207
790.45	7.209
790.63	7.294
790.81	7.266
790.99	7.198
791.16	7.185
791.34	7.225
791.52	7.166
791.69	7.151
791.87	7.074
792.05	7.140
792.23	7.083
792.40	7.059
792.58	7.003
792.76	7.060
792.94	7.120
793.11	7.255
793.29	7.245
793.47	7.299
793.64	7.241
793.82	7.364
794.00	7.271
794.18	7.181
794.35	7.189
794.53	7.128
794.71	7.128
794.88	7.169
795.06	7.131
795.24	7.068
795.41	7.042
795.59	7.203
795.77	7.186
795.94	7.171
796.12	7.319
796.30	7.239
796.48	7.187
796.65	7.206
796.83	7.222
797.01	7.204
797.18	7.245
797.36	7.283
797.54	7.200
797.71	7.158
797.89	7.192
798.07	7.109
798.24	7.291
798.42	7.417
798.60	7.456
798.77	7.462
798.95	7.404
799.13	7.367
799.30	7.275
799.48	7.257
799.66	7.259
799.83	7.302
800.01	7.400
800.18	7.326
800.36	7.391
800.54	7.359
800.71	7.365
800.89	7.347
801.07	7.426
801.24	7.493
801.42	7.582
801.60	7.620
801.77	7.588
801.95	7.473
802.12	7.502
802.30	7.519
802.48	7.469
802.65	7.580
802.83	7.765
803.01	7.878
803.18	7.928
803.36	7.927
803.53	7.916
803.71	7.989
803.89	8.074
804.06	8.057
804.24	7.979
804.41	8.078
804.59	7.952
804.77	7.980
804.94	7.925
805.12	7.899
805.29	7.831
805.47	7.834
805.65	7.833
805.82	7.922
806.00	7.961
806.17	7.879
806.35	7.868
806.53	7.943
806.70	7.859
806.88	7.765
807.05	7.743
807.23	7.694
807.40	7.731
807.58	7.796
807.76	7.792
807.93	7.760
808.11	7.861
808.28	7.889
808.46	7.866
808.63	7.928
808.81	7.960
808.99	8.045
809.16	8.117
809.34	8.109
809.51	8.026
809.69	8.092
809.86	8.130
810.04	8.103
810.21	8.027
810.39	8.071
810.57	8.024
810.74	8.072
810.92	8.013
811.09	8.068
811.27	8.071
811.44	8.208
811.62	8.209
811.79	8.257
811.97	8.163
812.14	8.197
812.32	8.272
812.49	8.267
812.67	8.244
812.84	8.165
813.02	8.277
813.19	8.271
813.37	8.116
813.55	8.016
813.72	8.012
813.90	8.317
814.07	8.330
814.25	8.318
814.42	8.407
814.60	8.450
814.77	8.557
814.95	8.565
815.12	8.646
815.30	8.762
815.47	8.816
815.65	8.804
815.82	8.765
816.00	8.927
816.17	8.885
816.35	8.727
816.52	8.838
816.69	8.957
816.87	8.909
817.04	8.755
817.22	8.711
817.39	8.723
817.57	8.700
817.74	8.669
817.92	8.633
818.09	8.600
818.27	8.705
818.44	8.644
818.62	8.396
818.79	8.381
818.97	8.535
819.14	8.553
819.32	8.535
819.49	8.602
819.66	8.582
819.84	8.540
820.01	8.522
820.19	8.488
820.36	8.454
820.54	8.627
820.71	8.635
820.89	8.636
821.06	8.715
821.23	8.727
821.41	8.656
821.58	8.556
821.76	8.470
821.93	8.396
822.11	8.331
822.28	8.267
822.45	8.194
822.63	8.171
822.80	8.153
822.98	8.139
823.15	8.134
823.33	8.133
823.50	8.150
823.67	8.181
823.85	8.226
824.02	8.286
824.20	8.383
824.37	8.508
824.54	8.621
824.72	8.721
824.89	8.789
825.07	8.866
825.24	8.952
825.41	9.056
825.59	9.125
825.76	9.185
825.94	9.239
826.11	9.207
826.28	9.205
826.46	9.147
826.63	9.095
826.80	9.065
826.98	9.004
827.15	8.966
827.33	8.920
827.50	8.865
827.67	8.851
827.85	8.834
828.02	8.887
828.19	8.891
828.37	8.898
828.54	8.979
828.72	9.036
828.89	9.093
829.06	9.152
829.24	9.284
829.41	9.404
829.58	9.463
829.76	9.540
829.93	9.640
830.10	9.668
830.28	9.814
830.45	9.805
830.62	9.884
830.80	10.046
830.97	10.021
831.14	9.810
831.32	9.832
831.49	9.938
831.66	10.031
831.84	9.967
832.01	9.966
832.18	9.916
832.36	9.825
832.53	9.778
832.70	9.704
832.88	9.708
833.05	9.713
833.22	9.670
833.40	9.552
833.57	9.438
833.74	9.399
833.91	9.388
834.09	9.380
834.26	9.410
834.43	9.389
834.61	9.343
834.78	9.380
834.95	9.438
835.13	9.466
835.30	9.467
835.47	9.551
835.64	9.574
835.82	9.586
835.99	9.629
836.16	9.716
836.34	9.805
836.51	9.938
836.68	9.972
836.85	9.938
837.03	9.999
837.20	10.152
837.37	10.169
837.54	10.200
837.72	10.262
837.89	10.235
838.06	10.260
838.24	10.123
838.41	10.123
838.58	10.139
838.75	10.207
838.93	10.148
839.10	10.165
839.27	10.201
839.44	10.280
839.62	10.289
839.79	10.170
839.96	10.046
840.13	10.180
840.31	10.047
840.48	10.093
840.65	10.055
840.82	10.085
840.99	10.138
841.17	10.099
841.34	10.173
841.51	10.351
841.68	10.508
841.86	10.613
842.03	10.728
842.20	10.920
842.37	10.901
842.55	10.941
842.72	10.866
842.89	10.934
843.06	11.073
843.23	10.715
843.41	10.557
843.58	10.578
843.75	10.821
843.92	10.953
844.09	10.832
844.27	10.999
844.44	11.222
844.61	11.116
844.78	11.111
844.95	10.946
845.13	11.513
845.30	11.471
845.47	11.440
845.64	11.473
845.81	11.321
845.98	11.176
846.16	10.891
846.33	10.937
846.50	11.191
846.67	10.970
846.84	11.207
847.02	11.212
847.19	11.378
847.36	11.106
847.53	10.501
847.70	10.138
847.87	10.351
848.04	10.611
848.22	10.237
848.39	10.139
848.56	9.904
848.73	9.523
848.90	9.264
849.07	9.214
849.25	9.364
849.42	9.349
849.59	9.576
849.76	9.338
849.93	9.561
850.10	9.848
850.27	9.964
850.45	10.519
850.62	10.899
850.79	10.928
850.96	10.987
851.13	11.080
851.30	10.919
851.47	10.916
851.64	11.153
851.82	10.872
851.99	10.915
852.16	11.029
852.33	10.681
852.50	10.487
852.67	10.711
852.84	10.879
853.01	10.885
853.18	11.350
853.35	11.266
853.53	11.409
853.70	11.470
853.87	11.599
854.04	11.578
854.21	12.072
854.38	12.011
854.55	11.861
854.72	11.506
854.89	11.795
855.06	11.907
855.23	11.745
855.41	11.393
855.58	11.597
855.75	11.437
855.92	11.155
856.09	10.763
856.26	10.914
856.43	10.712
856.60	10.767
856.77	10.198
856.94	9.790
857.11	10.329
857.28	10.624
857.45	10.240
857.62	10.146
857.80	10.476
857.97	10.170
858.14	10.294
858.31	10.891
858.48	10.939
858.65	11.436
858.82	11.691
858.99	11.293
859.16	11.409
859.33	11.773
859.50	11.540
859.67	11.521
859.84	11.696
860.01	11.548
860.18	11.004
860.35	11.426
860.52	11.299
860.69	10.959
860.86	11.682
861.03	11.435
861.20	11.261
861.37	11.520
861.54	11.684
861.71	11.691
861.88	11.878
862.05	12.166
862.22	11.852
862.39	12.064
862.56	12.110
862.73	11.648
862.90	11.900
863.07	11.887
863.24	11.670
863.41	11.367
863.58	11.553
863.75	11.365
863.92	11.283
864.09	11.437
864.26	11.450
864.43	11.668
864.60	11.473
864.77	11.748
864.94	12.077
865.11	12.613
865.28	12.797
865.45	13.032
865.62	13.329
865.79	13.492
865.96	13.071
866.13	12.731
866.30	12.873
866.47	13.273
866.64	12.555
866.81	12.278
866.98	12.402
867.15	12.351
867.32	11.974
867.49	11.543
867.66	11.590
867.82	11.501
867.99	11.810
868.16	11.854
868.33	11.628
868.50	11.880
868.67	12.334
868.84	12.175
869.01	12.093
869.18	12.464
869.35	13.072
869.52	13.011
869.69	13.779
869.86	13.739
870.03	13.547
870.19	13.548
870.36	13.958
870.53	13.429
870.70	13.204
870.87	13.839
871.04	13.441
871.21	13.043
871.38	13.104
871.55	12.720
871.72	12.660
871.89	12.911
872.05	12.716
872.22	12.024
872.39	12.142
872.56	12.189
872.73	11.973
872.90	12.335
873.07	12.612
873.24	12.476
873.41	12.753
873.57	12.807
873.74	12.590
873.91	12.746
874.08	13.254
874.25	13.182
874.42	13.120
874.59	13.117
874.76	12.791
874.92	12.700
875.09	12.803
875.26	12.541
875.43	12.575
875.60	12.908
875.77	12.863
875.94	13.022
876.11	13.330
876.27	13.696
876.44	13.530
876.61	13.908
876.78	13.827
876.95	13.809
877.12	13.858
877.28	13.822
877.45	13.459
877.62	13.589
877.79	13.531
877.96	13.732
878.13	13.319
878.29	13.287
878.46	13.142
878.63	13.255
878.80	12.922
878.97	13.293
879.14	13.448
879.30	13.688
879.47	13.689
879.64	13.641
879.81	13.413
879.98	13.462
880.14	13.472
880.31	13.338
880.48	13.260
880.65	13.435
880.82	13.233
880.98	13.029
881.15	12.940
881.32	12.811
881.49	12.705
881.66	12.602
881.82	12.536
881.99	12.482
882.16	12.491
882.33	12.475
882.50	12.415
882.66	12.430
882.83	12.463
883.00	12.471
883.17	12.535
883.33	12.577
883.50	12.691
883.67	12.795
883.84	12.887
884.01	12.970
884.17	13.045
884.34	13.166
884.51	13.228
884.68	13.280
884.84	13.352
885.01	13.375
885.18	13.502
885.35	13.480
885.51	13.493
885.68	13.636
885.85	13.683
886.02	13.739
886.18	13.809
886.35	13.749
886.52	13.880
886.69	13.783
886.85	13.887
887.02	13.778
887.19	13.843
887.35	14.060
887.52	13.855
887.69	13.820
887.86	13.954
888.02	13.921
888.19	13.918
888.36	13.150
888.53	14.422
888.69	15.693
888.86	14.524
889.03	12.246
>>>>>End Spectral Data<<<<<
