OOIBase32 Version 2.0.6.5 Data File
++++++++++++++++++++++++++++++++++++
Date: 11-17-2016, 11:08:03
User: Valued Ocean Optics Customer
Spectrometer Serial Number: USB4C01507
Spectrometer Channel: Master
Integration Time (msec): 49
Spectra Averaged: 25
Boxcar Smoothing: 5
Correct for Electrical Dark: Enabled
Time Normalized: Disabled
Dual-beam Reference: Disabled
Reference Channel: Master
Temperature: Not acquired
Spectrometer Type: S4000
ADC Type: USB4000
Number of Pixels in File: 3648
Graph Title: 
>>>>>Begin Spectral Data<<<<<
178.53	1585.899
178.74	2174.440
178.96	63.176
179.18	45.801
179.39	1100.837
179.61	-11.618
179.82	150.560
180.04	184.068
180.25	174.040
180.47	-223.618
180.69	126.049
180.90	561.695
181.12	-36.556
181.33	130.228
181.55	-1.203
181.76	10123.034
181.98	48.566
182.20	266.448
182.41	0.943
182.63	16.594
182.84	-7.062
183.06	-1.462
183.27	-7.794
183.49	-4.690
183.71	-8.302
183.92	-15.822
184.14	-26.715
184.35	-27.567
184.57	-35.407
184.78	-16.837
185.00	-9.601
185.21	-14.283
185.43	-2.868
185.65	6.349
185.86	-5.247
186.08	2.759
186.29	2.229
186.51	9.179
186.72	3.618
186.94	10.872
187.15	8.184
187.37	6.820
187.58	2.561
187.80	0.292
188.02	10.143
188.23	10.480
188.45	8.513
188.66	15.713
188.88	13.341
189.09	22.139
189.31	23.428
189.52	19.008
189.74	21.927
189.95	28.018
190.17	33.640
190.38	21.427
190.60	24.531
190.82	20.551
191.03	19.588
191.25	21.398
191.46	16.678
191.68	13.320
191.89	14.423
192.11	6.543
192.32	4.979
192.54	-2.252
192.75	4.562
192.97	0.215
193.18	1.376
193.40	0.202
193.61	-6.771
193.83	-0.485
194.04	-6.812
194.26	-1.150
194.48	1.371
194.69	2.724
194.91	3.483
195.12	-0.858
195.34	9.649
195.55	13.799
195.77	11.666
195.98	8.004
196.20	3.112
196.41	4.046
196.63	-0.704
196.84	1.241
197.06	0.703
197.27	-1.548
197.49	9.289
197.70	5.989
197.92	6.668
198.13	10.872
198.35	18.091
198.56	14.059
198.78	12.308
198.99	14.174
199.21	12.506
199.42	10.957
199.64	16.447
199.85	11.738
200.07	8.193
200.28	6.762
200.50	2.506
200.71	4.376
200.93	6.337
201.14	8.709
201.36	7.508
201.57	9.831
201.79	11.542
202.00	7.505
202.22	7.126
202.43	11.774
202.65	9.796
202.86	12.909
203.08	14.217
203.29	15.393
203.51	14.000
203.72	13.342
203.94	10.933
204.15	9.993
204.37	12.447
204.58	9.439
204.80	8.954
205.01	11.181
205.22	9.610
205.44	10.474
205.65	7.102
205.87	7.851
206.08	9.544
206.30	11.667
206.51	8.164
206.73	6.443
206.94	10.165
207.16	6.423
207.37	1.951
207.59	0.798
207.80	-0.226
208.02	-0.096
208.23	1.245
208.45	-2.172
208.66	-7.588
208.88	-4.713
209.09	-6.306
209.30	-6.273
209.52	-6.444
209.73	-3.537
209.95	-0.364
210.16	-4.977
210.38	-0.705
210.59	0.462
210.81	1.945
211.02	4.884
211.24	4.545
211.45	4.421
211.66	3.616
211.88	5.488
212.09	6.181
212.31	5.852
212.52	5.945
212.74	2.317
212.95	0.155
213.17	1.914
213.38	0.934
213.60	1.604
213.81	4.204
214.02	3.518
214.24	3.896
214.45	-0.207
214.67	-2.186
214.88	-1.625
215.10	0.275
215.31	-0.191
215.53	-3.025
215.74	-1.800
215.95	-0.388
216.17	-3.808
216.38	-4.450
216.60	-6.415
216.81	-3.978
217.03	-3.537
217.24	-4.629
217.45	-2.911
217.67	-2.943
217.88	-3.117
218.10	-2.383
218.31	-2.489
218.53	-1.378
218.74	-2.092
218.95	-3.622
219.17	-4.936
219.38	-2.940
219.60	1.710
219.81	1.243
220.03	1.623
220.24	3.710
220.45	3.312
220.67	2.094
220.88	3.432
221.10	4.195
221.31	4.954
221.53	5.428
221.74	3.011
221.95	0.566
222.17	-0.193
222.38	0.489
222.60	-0.398
222.81	-1.748
223.02	-1.371
223.24	-1.613
223.45	-1.647
223.67	-1.823
223.88	-1.521
224.09	-0.612
224.31	0.206
224.52	1.271
224.74	0.587
224.95	1.168
225.16	1.993
225.38	1.763
225.59	1.786
225.81	1.316
226.02	1.358
226.23	1.251
226.45	1.593
226.66	1.293
226.88	1.234
227.09	1.839
227.30	1.842
227.52	2.028
227.73	1.874
227.95	1.884
228.16	1.916
228.37	1.877
228.59	1.941
228.80	1.935
229.02	1.962
229.23	1.950
229.44	1.849
229.66	1.786
229.87	1.709
230.08	1.787
230.30	1.708
230.51	1.838
230.73	1.939
230.94	1.894
231.15	1.785
231.37	1.827
231.58	1.656
231.80	1.620
232.01	1.856
232.22	1.852
232.44	1.886
232.65	1.909
232.86	1.485
233.08	1.676
233.29	1.548
233.51	1.880
233.72	1.836
233.93	1.984
234.15	1.889
234.36	1.785
234.57	1.582
234.79	1.626
235.00	1.862
235.21	2.354
235.43	2.150
235.64	2.095
235.86	1.867
236.07	1.806
236.28	1.520
236.50	1.581
236.71	1.773
236.92	2.147
237.14	2.187
237.35	2.066
237.56	1.921
237.78	1.930
237.99	1.991
238.20	2.062
238.42	2.186
238.63	2.266
238.84	2.682
239.06	2.393
239.27	1.905
239.48	1.800
239.70	1.782
239.91	1.467
240.13	1.473
240.34	1.450
240.55	1.399
240.77	1.443
240.98	1.527
241.19	1.486
241.41	1.420
241.62	1.537
241.83	1.496
242.05	1.444
242.26	1.464
242.47	1.447
242.69	1.478
242.90	1.578
243.11	1.558
243.33	1.560
243.54	1.417
243.75	1.466
243.97	1.386
244.18	1.481
244.39	1.545
244.61	1.475
244.82	1.604
245.03	1.589
245.24	1.563
245.46	1.613
245.67	1.637
245.88	1.711
246.10	1.727
246.31	1.726
246.52	1.657
246.74	1.656
246.95	1.699
247.16	1.654
247.38	1.672
247.59	1.668
247.80	1.675
248.02	1.690
248.23	1.684
248.44	1.683
248.66	1.682
248.87	1.691
249.08	1.698
249.29	1.708
249.51	1.794
249.72	1.811
249.93	1.807
250.15	1.793
250.36	1.636
250.57	1.569
250.79	1.607
251.00	1.665
251.21	1.729
251.42	1.765
251.64	1.624
251.85	1.652
252.06	1.661
252.28	1.553
252.49	1.545
252.70	1.536
252.91	1.500
253.13	1.497
253.34	1.475
253.55	1.539
253.77	1.506
253.98	1.740
254.19	1.752
254.40	1.818
254.62	1.911
254.83	1.788
255.04	1.999
255.26	2.098
255.47	1.982
255.68	2.003
255.89	1.917
256.11	1.838
256.32	1.704
256.53	1.658
256.75	1.508
256.96	1.616
257.17	1.757
257.38	1.861
257.60	1.881
257.81	1.888
258.02	1.819
258.23	1.666
258.45	1.555
258.66	1.632
258.87	1.553
259.09	1.514
259.30	1.503
259.51	1.485
259.72	1.442
259.94	1.413
260.15	1.375
260.36	1.439
260.57	1.469
260.79	1.516
261.00	1.476
261.21	1.492
261.42	1.590
261.64	1.522
261.85	1.514
262.06	1.489
262.27	1.623
262.49	1.665
262.70	1.588
262.91	1.560
263.12	1.572
263.34	1.511
263.55	1.509
263.76	1.350
263.97	1.464
264.19	1.628
264.40	1.570
264.61	1.590
264.82	1.573
265.04	1.561
265.25	1.506
265.46	1.546
265.67	1.591
265.88	1.538
266.10	1.472
266.31	1.415
266.52	1.270
266.73	1.389
266.95	1.270
267.16	1.234
267.37	1.233
267.58	1.271
267.80	1.241
268.01	1.269
268.22	1.275
268.43	1.340
268.64	1.424
268.86	1.404
269.07	1.343
269.28	1.315
269.49	1.388
269.71	1.336
269.92	1.259
270.13	1.281
270.34	1.237
270.55	1.346
270.77	1.422
270.98	1.383
271.19	1.515
271.40	1.496
271.61	1.482
271.83	1.472
272.04	1.456
272.25	1.554
272.46	1.580
272.68	1.614
272.89	1.550
273.10	1.506
273.31	1.488
273.52	1.397
273.74	1.366
273.95	1.357
274.16	1.425
274.37	1.458
274.58	1.426
274.80	1.455
275.01	1.439
275.22	1.496
275.43	1.542
275.64	1.559
275.86	1.617
276.07	1.563
276.28	1.718
276.49	1.636
276.70	1.694
276.91	1.664
277.13	1.511
277.34	1.573
277.55	1.545
277.76	1.443
277.97	1.459
278.19	1.406
278.40	1.522
278.61	1.396
278.82	1.419
279.03	1.394
279.24	1.361
279.46	1.393
279.67	1.360
279.88	1.258
280.09	1.273
280.30	1.307
280.52	1.363
280.73	1.402
280.94	1.515
281.15	1.458
281.36	1.409
281.57	1.496
281.79	1.539
282.00	1.473
282.21	1.492
282.42	1.505
282.63	1.545
282.84	1.495
283.06	1.435
283.27	1.322
283.48	1.385
283.69	1.324
283.90	1.310
284.11	1.271
284.32	1.206
284.54	1.230
284.75	1.214
284.96	1.126
285.17	1.190
285.38	1.182
285.59	1.250
285.81	1.283
286.02	1.370
286.23	1.381
286.44	1.408
286.65	1.487
286.86	1.495
287.07	1.515
287.29	1.472
287.50	1.378
287.71	1.379
287.92	1.355
288.13	1.296
288.34	1.284
288.55	1.299
288.77	1.333
288.98	1.249
289.19	1.272
289.40	1.314
289.61	1.431
289.82	1.504
290.03	1.436
290.24	1.411
290.46	1.367
290.67	1.329
290.88	1.314
291.09	1.201
291.30	1.237
291.51	1.276
291.72	1.289
291.93	1.209
292.15	1.138
292.36	1.327
292.57	1.309
292.78	1.336
292.99	1.308
293.20	1.468
293.41	1.437
293.62	1.452
293.84	1.414
294.05	1.370
294.26	1.380
294.47	1.347
294.68	1.336
294.89	1.345
295.10	1.323
295.31	1.364
295.52	1.243
295.73	1.280
295.95	1.268
296.16	1.257
296.37	1.321
296.58	1.384
296.79	1.394
297.00	1.329
297.21	1.349
297.42	1.360
297.63	1.375
297.84	1.379
298.06	1.350
298.27	1.406
298.48	1.438
298.69	1.330
298.90	1.254
299.11	1.265
299.32	1.218
299.53	1.191
299.74	1.220
299.95	1.269
300.16	1.213
300.38	1.341
300.59	1.300
300.80	1.214
301.01	1.300
301.22	1.330
301.43	1.328
301.64	1.390
301.85	1.321
302.06	1.296
302.27	1.231
302.48	1.280
302.69	1.238
302.91	1.185
303.12	1.249
303.33	1.219
303.54	1.180
303.75	1.142
303.96	1.207
304.17	1.255
304.38	1.292
304.59	1.308
304.80	1.272
305.01	1.297
305.22	1.280
305.43	1.269
305.64	1.261
305.85	1.246
306.06	1.346
306.28	1.281
306.49	1.273
306.70	1.225
306.91	1.112
307.12	1.152
307.33	1.006
307.54	1.071
307.75	1.002
307.96	1.010
308.17	1.022
308.38	1.019
308.59	1.002
308.80	1.008
309.01	1.044
309.22	1.059
309.43	1.015
309.64	1.092
309.85	1.051
310.06	1.074
310.27	1.124
310.48	1.175
310.70	1.133
310.91	1.167
311.12	1.164
311.33	1.155
311.54	1.124
311.75	1.100
311.96	1.086
312.17	1.108
312.38	1.136
312.59	1.093
312.80	1.091
313.01	1.085
313.22	1.058
313.43	1.046
313.64	0.941
313.85	1.018
314.06	1.039
314.27	1.110
314.48	1.245
314.69	1.243
314.90	1.230
315.11	1.338
315.32	1.313
315.53	1.345
315.74	1.346
315.95	1.406
316.16	1.363
316.37	1.292
316.58	1.178
316.79	1.004
317.00	0.954
317.21	0.910
317.42	0.741
317.63	0.782
317.84	0.674
318.05	0.643
318.26	0.619
318.47	0.620
318.68	0.728
318.89	0.801
319.10	0.811
319.31	0.744
319.52	0.768
319.73	0.833
319.94	0.788
320.15	0.804
320.36	0.911
320.57	0.905
320.78	0.921
320.99	0.820
321.20	0.846
321.41	0.881
321.62	0.917
321.83	0.996
322.04	0.950
322.25	0.993
322.46	0.994
322.67	0.923
322.88	0.972
323.09	0.974
323.30	0.970
323.51	0.942
323.72	0.922
323.93	0.894
324.14	0.900
324.35	0.943
324.56	0.973
324.77	1.028
324.98	1.012
325.19	0.967
325.40	0.951
325.61	1.039
325.82	1.040
326.03	1.092
326.24	1.151
326.45	1.104
326.65	1.035
326.86	0.971
327.07	0.976
327.28	1.006
327.49	1.033
327.70	1.005
327.91	0.990
328.12	0.956
328.33	0.842
328.54	0.847
328.75	0.869
328.96	0.943
329.17	0.929
329.38	0.830
329.59	0.808
329.80	0.847
330.01	0.933
330.22	0.913
330.43	0.934
330.64	0.992
330.85	1.000
331.05	0.954
331.26	0.873
331.47	0.865
331.68	0.943
331.89	0.950
332.10	0.918
332.31	0.921
332.52	0.877
332.73	0.812
332.94	0.828
333.15	0.808
333.36	0.807
333.57	0.830
333.78	0.839
333.99	0.786
334.19	0.814
334.40	0.816
334.61	0.805
334.82	0.850
335.03	0.859
335.24	0.840
335.45	0.841
335.66	0.866
335.87	0.889
336.08	0.921
336.29	0.954
336.50	0.933
336.71	0.956
336.91	0.909
337.12	0.824
337.33	0.818
337.54	0.852
337.75	0.839
337.96	0.748
338.17	0.778
338.38	0.762
338.59	0.799
338.80	0.709
339.01	0.705
339.21	0.667
339.42	0.750
339.63	0.776
339.84	0.801
340.05	0.820
340.26	0.845
340.47	0.799
340.68	0.813
340.89	0.804
341.10	0.868
341.30	0.838
341.51	0.862
341.72	0.873
341.93	0.870
342.14	0.804
342.35	0.818
342.56	0.850
342.77	0.880
342.98	0.826
343.18	0.802
343.39	0.782
343.60	0.762
343.81	0.800
344.02	0.804
344.23	0.794
344.44	0.775
344.65	0.750
344.85	0.702
345.06	0.676
345.27	0.702
345.48	0.664
345.69	0.719
345.90	0.769
346.11	0.759
346.32	0.696
346.52	0.667
346.73	0.685
346.94	0.697
347.15	0.783
347.36	0.773
347.57	0.799
347.78	0.848
347.98	0.842
348.19	0.805
348.40	0.815
348.61	0.871
348.82	0.931
349.03	0.961
349.24	0.952
349.44	0.893
349.65	0.874
349.86	0.885
350.07	0.879
350.28	0.838
350.49	0.841
350.70	0.827
350.90	0.836
351.11	0.796
351.32	0.785
351.53	0.836
351.74	0.858
351.95	0.826
352.15	0.811
352.36	0.795
352.57	0.821
352.78	0.882
352.99	0.923
353.20	0.939
353.40	0.967
353.61	0.907
353.82	0.830
354.03	0.864
354.24	0.915
354.45	0.944
354.65	0.985
354.86	0.970
355.07	0.929
355.28	0.938
355.49	0.885
355.70	0.881
355.90	0.915
356.11	0.949
356.32	0.941
356.53	0.923
356.74	0.895
356.94	0.812
357.15	0.837
357.36	0.831
357.57	0.770
357.78	0.774
357.99	0.769
358.19	0.797
358.40	0.802
358.61	0.795
358.82	0.868
359.03	0.889
359.23	0.951
359.44	0.941
359.65	0.905
359.86	0.936
360.07	0.972
360.27	1.017
360.48	1.005
360.69	1.034
360.90	1.009
361.11	1.033
361.31	0.988
361.52	0.978
361.73	0.991
361.94	1.026
362.15	1.028
362.35	1.000
362.56	0.989
362.77	0.990
362.98	0.953
363.18	0.953
363.39	0.879
363.60	0.950
363.81	0.953
364.02	0.943
364.22	0.951
364.43	0.947
364.64	0.970
364.85	0.958
365.05	0.985
365.26	0.983
365.47	1.023
365.68	1.038
365.89	1.010
366.09	1.028
366.30	1.047
366.51	1.044
366.72	1.020
366.92	1.049
367.13	1.081
367.34	1.045
367.55	1.041
367.75	0.994
367.96	1.024
368.17	0.999
368.38	0.992
368.58	0.989
368.79	0.968
369.00	0.986
369.21	0.948
369.41	0.914
369.62	0.897
369.83	0.915
370.04	0.948
370.24	0.893
370.45	0.911
370.66	0.933
370.87	0.880
371.07	0.846
371.28	0.853
371.49	0.856
371.70	0.849
371.90	0.876
372.11	0.867
372.32	0.872
372.53	0.899
372.73	0.892
372.94	0.829
373.15	0.905
373.36	0.938
373.56	0.963
373.77	0.942
373.98	0.964
374.19	0.980
374.39	0.994
374.60	1.008
374.81	1.028
375.01	1.050
375.22	1.072
375.43	1.045
375.64	1.038
375.84	1.028
376.05	1.048
376.26	1.040
376.46	0.992
376.67	0.951
376.88	0.956
377.09	0.943
377.29	0.940
377.50	0.948
377.71	0.951
377.91	1.010
378.12	0.983
378.33	0.996
378.54	1.003
378.74	1.024
378.95	1.054
379.16	1.023
379.36	1.000
379.57	0.996
379.78	1.007
379.99	1.019
380.19	0.973
380.40	0.978
380.61	0.977
380.81	0.955
381.02	0.965
381.23	0.963
381.43	0.971
381.64	1.021
381.85	1.030
382.05	1.038
382.26	1.014
382.47	1.012
382.67	1.016
382.88	0.988
383.09	1.012
383.30	1.002
383.50	1.026
383.71	1.020
383.92	0.977
384.12	0.963
384.33	0.916
384.54	0.927
384.74	0.948
384.95	0.923
385.16	0.942
385.36	0.953
385.57	0.978
385.78	0.951
385.98	0.977
386.19	0.991
386.40	1.013
386.60	1.046
386.81	1.017
387.02	0.987
387.22	1.006
387.43	1.019
387.64	0.987
387.84	0.984
388.05	0.991
388.26	0.951
388.46	0.939
388.67	0.917
388.88	0.918
389.08	0.947
389.29	0.986
389.49	0.959
389.70	0.934
389.91	0.913
390.11	0.902
390.32	0.906
390.53	0.944
390.73	0.953
390.94	0.954
391.15	0.952
391.35	0.944
391.56	0.933
391.77	0.949
391.97	0.943
392.18	0.985
392.38	0.990
392.59	1.009
392.80	0.986
393.00	0.968
393.21	0.988
393.42	0.998
393.62	0.995
393.83	0.997
394.04	1.002
394.24	1.024
394.45	1.000
394.65	1.015
394.86	0.992
395.07	0.978
395.27	0.973
395.48	0.937
395.68	0.933
395.89	0.926
396.10	0.915
396.30	0.883
396.51	0.889
396.72	0.914
396.92	0.884
397.13	0.864
397.33	0.872
397.54	0.881
397.75	0.914
397.95	0.908
398.16	0.903
398.36	0.896
398.57	0.937
398.78	0.891
398.98	0.876
399.19	0.888
399.39	0.922
399.60	0.918
399.81	0.923
400.01	0.893
400.22	0.887
400.42	0.921
400.63	0.915
400.84	0.921
401.04	0.956
401.25	0.949
401.45	0.947
401.66	0.927
401.86	0.927
402.07	0.945
402.28	0.966
402.48	0.945
402.69	0.932
402.89	0.953
403.10	0.966
403.31	0.980
403.51	0.978
403.72	0.988
403.92	0.997
404.13	1.003
404.33	1.011
404.54	1.020
404.75	1.034
404.95	1.053
405.16	1.037
405.36	1.009
405.57	0.972
405.77	0.986
405.98	0.967
406.18	0.943
406.39	0.959
406.60	0.937
406.80	0.936
407.01	0.960
407.21	0.943
407.42	0.977
407.62	0.995
407.83	1.012
408.03	0.996
408.24	1.008
408.45	1.019
408.65	1.048
408.86	1.064
409.06	1.061
409.27	1.053
409.47	1.045
409.68	1.025
409.88	1.051
410.09	1.064
410.29	1.078
410.50	1.073
410.71	1.090
410.91	1.059
411.12	1.035
411.32	1.048
411.53	1.044
411.73	1.052
411.94	1.029
412.14	1.014
412.35	0.993
412.55	0.986
412.76	0.977
412.96	0.977
413.17	0.962
413.37	0.989
413.58	0.993
413.78	0.997
413.99	1.015
414.19	1.069
414.40	1.047
414.61	1.075
414.81	1.078
415.02	1.089
415.22	1.081
415.43	1.085
415.63	1.088
415.84	1.063
416.04	1.052
416.25	1.030
416.45	1.006
416.66	1.023
416.86	1.038
417.07	1.042
417.27	1.047
417.48	1.042
417.68	1.047
417.89	1.031
418.09	1.038
418.30	1.033
418.50	1.028
418.71	1.029
418.91	1.028
419.12	1.011
419.32	1.007
419.53	1.006
419.73	1.009
419.94	1.015
420.14	1.009
420.34	1.007
420.55	1.013
420.75	1.016
420.96	1.014
421.16	1.008
421.37	1.008
421.57	1.031
421.78	1.027
421.98	1.029
422.19	1.032
422.39	1.060
422.60	1.060
422.80	1.063
423.01	1.067
423.21	1.071
423.42	1.073
423.62	1.052
423.83	1.020
424.03	1.029
424.23	1.030
424.44	1.016
424.64	1.003
424.85	1.003
425.05	1.009
425.26	1.001
425.46	1.001
425.67	0.998
425.87	1.023
426.08	1.037
426.28	1.023
426.48	1.033
426.69	1.045
426.89	1.051
427.10	1.072
427.30	1.082
427.51	1.114
427.71	1.107
427.92	1.081
428.12	1.076
428.32	1.076
428.53	1.074
428.73	1.073
428.94	1.070
429.14	1.056
429.35	1.024
429.55	1.020
429.76	1.006
429.96	1.017
430.16	1.049
430.37	1.057
430.57	1.063
430.78	1.088
430.98	1.069
431.19	1.066
431.39	1.052
431.59	1.046
431.80	1.044
432.00	1.027
432.21	1.024
432.41	1.005
432.61	1.000
432.82	1.000
433.02	0.994
433.23	1.000
433.43	1.005
433.64	1.023
433.84	1.040
434.04	1.043
434.25	1.053
434.45	1.055
434.66	1.063
434.86	1.061
435.06	1.061
435.27	1.062
435.47	1.061
435.68	1.054
435.88	1.049
436.08	1.037
436.29	1.021
436.49	1.033
436.70	1.029
436.90	1.034
437.10	1.034
437.31	1.027
437.51	1.013
437.71	1.017
437.92	1.020
438.12	1.024
438.33	1.030
438.53	1.038
438.73	1.024
438.94	1.022
439.14	1.025
439.35	1.025
439.55	1.032
439.75	1.033
439.96	1.036
440.16	1.042
440.36	1.041
440.57	1.042
440.77	1.047
440.97	1.058
441.18	1.070
441.38	1.069
441.59	1.077
441.79	1.087
441.99	1.106
442.20	1.098
442.40	1.091
442.60	1.088
442.81	1.072
443.01	1.056
443.21	1.043
443.42	1.042
443.62	1.036
443.83	1.036
444.03	1.032
444.23	1.042
444.44	1.049
444.64	1.055
444.84	1.054
445.05	1.062
445.25	1.065
445.45	1.074
445.66	1.071
445.86	1.078
446.06	1.080
446.27	1.083
446.47	1.063
446.67	1.066
446.88	1.061
447.08	1.070
447.28	1.068
447.49	1.068
447.69	1.064
447.89	1.072
448.10	1.071
448.30	1.061
448.50	1.042
448.71	1.047
448.91	1.040
449.11	1.046
449.32	1.046
449.52	1.056
449.72	1.058
449.93	1.055
450.13	1.034
450.33	1.037
450.53	1.045
450.74	1.061
450.94	1.052
451.14	1.049
451.35	1.056
451.55	1.046
451.75	1.052
451.96	1.050
452.16	1.055
452.36	1.068
452.57	1.067
452.77	1.080
452.97	1.070
453.17	1.081
453.38	1.091
453.58	1.077
453.78	1.067
453.99	1.060
454.19	1.067
454.39	1.084
454.59	1.082
454.80	1.061
455.00	1.057
455.20	1.064
455.41	1.051
455.61	1.039
455.81	1.054
456.01	1.072
456.22	1.075
456.42	1.072
456.62	1.053
456.83	1.047
457.03	1.064
457.23	1.046
457.43	1.044
457.64	1.076
457.84	1.082
458.04	1.075
458.25	1.078
458.45	1.068
458.65	1.069
458.85	1.074
459.06	1.067
459.26	1.060
459.46	1.066
459.66	1.070
459.87	1.056
460.07	1.061
460.27	1.062
460.47	1.053
460.68	1.062
460.88	1.053
461.08	1.040
461.28	1.051
461.49	1.055
461.69	1.061
461.89	1.048
462.09	1.048
462.30	1.042
462.50	1.046
462.70	1.051
462.90	1.042
463.11	1.045
463.31	1.054
463.51	1.045
463.71	1.052
463.92	1.066
464.12	1.073
464.32	1.087
464.52	1.085
464.72	1.089
464.93	1.082
465.13	1.075
465.33	1.079
465.53	1.079
465.74	1.083
465.94	1.083
466.14	1.059
466.34	1.061
466.54	1.053
466.75	1.046
466.95	1.040
467.15	1.057
467.35	1.067
467.56	1.075
467.76	1.082
467.96	1.088
468.16	1.087
468.36	1.089
468.57	1.104
468.77	1.116
468.97	1.117
469.17	1.118
469.37	1.115
469.58	1.116
469.78	1.116
469.98	1.113
470.18	1.105
470.38	1.096
470.59	1.098
470.79	1.088
470.99	1.071
471.19	1.074
471.39	1.068
471.60	1.043
471.80	1.044
472.00	1.028
472.20	1.030
472.40	1.028
472.61	1.035
472.81	1.041
473.01	1.029
473.21	1.027
473.41	1.030
473.61	1.039
473.82	1.071
474.02	1.070
474.22	1.088
474.42	1.090
474.62	1.097
474.82	1.099
475.03	1.112
475.23	1.124
475.43	1.147
475.63	1.151
475.83	1.145
476.03	1.119
476.24	1.120
476.44	1.124
476.64	1.116
476.84	1.116
477.04	1.115
477.24	1.102
477.45	1.096
477.65	1.097
477.85	1.090
478.05	1.088
478.25	1.097
478.45	1.092
478.65	1.079
478.86	1.076
479.06	1.079
479.26	1.088
479.46	1.095
479.66	1.099
479.86	1.089
480.06	1.104
480.27	1.097
480.47	1.093
480.67	1.099
480.87	1.092
481.07	1.093
481.27	1.093
481.47	1.095
481.68	1.087
481.88	1.097
482.08	1.098
482.28	1.108
482.48	1.120
482.68	1.120
482.88	1.113
483.08	1.124
483.29	1.132
483.49	1.124
483.69	1.114
483.89	1.114
484.09	1.111
484.29	1.110
484.49	1.107
484.69	1.103
484.89	1.106
485.10	1.110
485.30	1.105
485.50	1.101
485.70	1.101
485.90	1.109
486.10	1.116
486.30	1.123
486.50	1.125
486.70	1.125
486.90	1.123
487.11	1.120
487.31	1.119
487.51	1.111
487.71	1.104
487.91	1.117
488.11	1.114
488.31	1.114
488.51	1.115
488.71	1.113
488.91	1.117
489.11	1.124
489.32	1.120
489.52	1.125
489.72	1.136
489.92	1.152
490.12	1.152
490.32	1.163
490.52	1.158
490.72	1.145
490.92	1.146
491.12	1.134
491.32	1.128
491.52	1.131
491.72	1.127
491.92	1.123
492.13	1.124
492.33	1.124
492.53	1.132
492.73	1.132
492.93	1.141
493.13	1.151
493.33	1.160
493.53	1.174
493.73	1.176
493.93	1.179
494.13	1.189
494.33	1.173
494.53	1.169
494.73	1.153
494.93	1.159
495.13	1.155
495.33	1.143
495.53	1.134
495.73	1.135
495.94	1.143
496.14	1.151
496.34	1.150
496.54	1.153
496.74	1.150
496.94	1.159
497.14	1.147
497.34	1.155
497.54	1.155
497.74	1.164
497.94	1.168
498.14	1.169
498.34	1.170
498.54	1.162
498.74	1.153
498.94	1.158
499.14	1.150
499.34	1.149
499.54	1.142
499.74	1.141
499.94	1.133
500.14	1.133
500.34	1.130
500.54	1.133
500.74	1.142
500.94	1.153
501.14	1.147
501.34	1.150
501.54	1.164
501.74	1.144
501.94	1.144
502.14	1.147
502.34	1.136
502.54	1.133
502.74	1.126
502.94	1.124
503.14	1.126
503.34	1.126
503.54	1.128
503.74	1.116
503.94	1.127
504.14	1.123
504.34	1.125
504.54	1.128
504.74	1.130
504.94	1.127
505.14	1.138
505.34	1.147
505.54	1.154
505.74	1.162
505.94	1.174
506.14	1.188
506.34	1.208
506.54	1.219
506.74	1.222
506.94	1.214
507.14	1.212
507.34	1.189
507.54	1.174
507.74	1.169
507.94	1.161
508.14	1.157
508.34	1.146
508.54	1.134
508.74	1.130
508.94	1.130
509.13	1.134
509.33	1.141
509.53	1.150
509.73	1.153
509.93	1.146
510.13	1.143
510.33	1.141
510.53	1.146
510.73	1.156
510.93	1.152
511.13	1.146
511.33	1.148
511.53	1.156
511.73	1.160
511.93	1.170
512.13	1.177
512.33	1.182
512.53	1.191
512.73	1.197
512.92	1.196
513.12	1.205
513.32	1.219
513.52	1.221
513.72	1.219
513.92	1.231
514.12	1.227
514.32	1.228
514.52	1.222
514.72	1.202
514.92	1.185
515.12	1.179
515.32	1.165
515.52	1.160
515.71	1.162
515.91	1.157
516.11	1.152
516.31	1.155
516.51	1.151
516.71	1.166
516.91	1.193
517.11	1.199
517.31	1.193
517.51	1.205
517.71	1.206
517.90	1.207
518.10	1.200
518.30	1.199
518.50	1.194
518.70	1.202
518.90	1.192
519.10	1.185
519.30	1.190
519.50	1.201
519.69	1.204
519.89	1.197
520.09	1.194
520.29	1.205
520.49	1.205
520.69	1.222
520.89	1.221
521.09	1.225
521.29	1.224
521.48	1.229
521.68	1.223
521.88	1.217
522.08	1.226
522.28	1.232
522.48	1.229
522.68	1.236
522.88	1.216
523.07	1.229
523.27	1.235
523.47	1.246
523.67	1.245
523.87	1.247
524.07	1.236
524.27	1.242
524.47	1.240
524.66	1.238
524.86	1.241
525.06	1.252
525.26	1.240
525.46	1.241
525.66	1.237
525.85	1.230
526.05	1.235
526.25	1.238
526.45	1.234
526.65	1.243
526.85	1.250
527.05	1.253
527.24	1.257
527.44	1.257
527.64	1.244
527.84	1.237
528.04	1.240
528.24	1.231
528.43	1.231
528.63	1.237
528.83	1.232
529.03	1.229
529.23	1.227
529.43	1.224
529.62	1.222
529.82	1.228
530.02	1.229
530.22	1.231
530.42	1.240
530.62	1.245
530.81	1.236
531.01	1.237
531.21	1.238
531.41	1.244
531.61	1.246
531.80	1.258
532.00	1.257
532.20	1.261
532.40	1.259
532.60	1.258
532.79	1.251
532.99	1.247
533.19	1.252
533.39	1.247
533.59	1.250
533.78	1.244
533.98	1.244
534.18	1.250
534.38	1.252
534.58	1.263
534.77	1.262
534.97	1.263
535.17	1.274
535.37	1.272
535.57	1.274
535.76	1.260
535.96	1.266
536.16	1.259
536.36	1.253
536.56	1.247
536.75	1.231
536.95	1.240
537.15	1.246
537.35	1.255
537.54	1.267
537.74	1.273
537.94	1.282
538.14	1.290
538.34	1.298
538.53	1.308
538.73	1.311
538.93	1.318
539.13	1.305
539.32	1.315
539.52	1.302
539.72	1.285
539.92	1.276
540.11	1.263
540.31	1.251
540.51	1.241
540.71	1.231
540.90	1.223
541.10	1.223
541.30	1.229
541.50	1.225
541.69	1.220
541.89	1.221
542.09	1.227
542.29	1.230
542.48	1.234
542.68	1.245
542.88	1.249
543.08	1.263
543.27	1.272
543.47	1.274
543.67	1.283
543.87	1.293
544.06	1.294
544.26	1.305
544.46	1.309
544.65	1.320
544.85	1.315
545.05	1.323
545.25	1.320
545.44	1.309
545.64	1.318
545.84	1.319
546.04	1.321
546.23	1.322
546.43	1.310
546.63	1.308
546.82	1.290
547.02	1.294
547.22	1.299
547.42	1.304
547.61	1.319
547.81	1.317
548.01	1.305
548.20	1.306
548.40	1.306
548.60	1.304
548.79	1.300
548.99	1.321
549.19	1.309
549.39	1.283
549.58	1.285
549.78	1.261
549.98	1.255
550.17	1.260
550.37	1.254
550.57	1.261
550.76	1.259
550.96	1.272
551.16	1.282
551.35	1.285
551.55	1.299
551.75	1.297
551.94	1.306
552.14	1.307
552.34	1.302
552.53	1.301
552.73	1.296
552.93	1.304
553.13	1.308
553.32	1.293
553.52	1.301
553.72	1.302
553.91	1.300
554.11	1.308
554.31	1.310
554.50	1.316
554.70	1.312
554.89	1.323
555.09	1.323
555.29	1.317
555.48	1.316
555.68	1.313
555.88	1.314
556.07	1.315
556.27	1.311
556.47	1.308
556.66	1.307
556.86	1.318
557.06	1.311
557.25	1.304
557.45	1.302
557.65	1.301
557.84	1.297
558.04	1.294
558.23	1.286
558.43	1.293
558.63	1.295
558.82	1.289
559.02	1.280
559.22	1.286
559.41	1.295
559.61	1.306
559.81	1.313
560.00	1.314
560.20	1.324
560.39	1.340
560.59	1.341
560.79	1.341
560.98	1.353
561.18	1.358
561.37	1.351
561.57	1.348
561.77	1.336
561.96	1.327
562.16	1.338
562.36	1.347
562.55	1.342
562.75	1.337
562.94	1.338
563.14	1.325
563.34	1.334
563.53	1.331
563.73	1.336
563.92	1.356
564.12	1.361
564.32	1.352
564.51	1.350
564.71	1.349
564.90	1.353
565.10	1.356
565.29	1.370
565.49	1.374
565.69	1.388
565.88	1.377
566.08	1.371
566.27	1.373
566.47	1.374
566.67	1.371
566.86	1.381
567.06	1.380
567.25	1.388
567.45	1.394
567.64	1.395
567.84	1.394
568.04	1.399
568.23	1.394
568.43	1.397
568.62	1.394
568.82	1.387
569.01	1.380
569.21	1.366
569.41	1.361
569.60	1.349
569.80	1.350
569.99	1.344
570.19	1.346
570.38	1.348
570.58	1.354
570.77	1.374
570.97	1.383
571.17	1.388
571.36	1.409
571.56	1.408
571.75	1.417
571.95	1.416
572.14	1.417
572.34	1.427
572.53	1.444
572.73	1.436
572.92	1.429
573.12	1.428
573.31	1.427
573.51	1.422
573.70	1.413
573.90	1.403
574.10	1.400
574.29	1.422
574.49	1.418
574.68	1.398
574.88	1.406
575.07	1.403
575.27	1.398
575.46	1.396
575.66	1.399
575.85	1.404
576.05	1.410
576.24	1.407
576.44	1.384
576.63	1.372
576.83	1.376
577.02	1.377
577.22	1.381
577.41	1.389
577.61	1.392
577.80	1.404
578.00	1.413
578.19	1.423
578.39	1.433
578.58	1.434
578.78	1.462
578.97	1.471
579.17	1.473
579.36	1.455
579.56	1.458
579.75	1.457
579.95	1.441
580.14	1.433
580.34	1.429
580.53	1.440
580.73	1.446
580.92	1.436
581.12	1.429
581.31	1.423
581.51	1.438
581.70	1.437
581.89	1.439
582.09	1.440
582.28	1.446
582.48	1.437
582.67	1.427
582.87	1.435
583.06	1.428
583.26	1.427
583.45	1.425
583.65	1.432
583.84	1.436
584.04	1.421
584.23	1.426
584.43	1.412
584.62	1.411
584.81	1.406
585.01	1.389
585.20	1.383
585.40	1.402
585.59	1.398
585.79	1.387
585.98	1.393
586.18	1.407
586.37	1.401
586.56	1.412
586.76	1.418
586.95	1.410
587.15	1.427
587.34	1.440
587.54	1.413
587.73	1.431
587.92	1.423
588.12	1.406
588.31	1.406
588.51	1.407
588.70	1.421
588.90	1.412
589.09	1.431
589.28	1.424
589.48	1.433
589.67	1.446
589.87	1.423
590.06	1.422
590.25	1.439
590.45	1.446
590.64	1.459
590.84	1.455
591.03	1.467
591.23	1.456
591.42	1.463
591.61	1.444
591.81	1.443
592.00	1.457
592.20	1.466
592.39	1.466
592.58	1.447
592.78	1.445
592.97	1.445
593.17	1.438
593.36	1.433
593.55	1.431
593.75	1.453
593.94	1.451
594.13	1.455
594.33	1.453
594.52	1.452
594.72	1.471
594.91	1.478
595.10	1.487
595.30	1.473
595.49	1.483
595.68	1.491
595.88	1.487
596.07	1.486
596.27	1.488
596.46	1.492
596.65	1.490
596.85	1.493
597.04	1.487
597.23	1.495
597.43	1.522
597.62	1.528
597.81	1.519
598.01	1.527
598.20	1.539
598.40	1.540
598.59	1.548
598.78	1.556
598.98	1.557
599.17	1.559
599.36	1.529
599.56	1.527
599.75	1.519
599.94	1.526
600.14	1.507
600.33	1.509
600.52	1.514
600.72	1.542
600.91	1.535
601.10	1.525
601.30	1.520
601.49	1.539
601.68	1.540
601.88	1.555
602.07	1.550
602.26	1.549
602.46	1.519
602.65	1.516
602.84	1.505
603.04	1.515
603.23	1.526
603.42	1.530
603.62	1.534
603.81	1.537
604.00	1.543
604.20	1.534
604.39	1.550
604.58	1.572
604.77	1.572
604.97	1.577
605.16	1.578
605.35	1.579
605.55	1.586
605.74	1.589
605.93	1.591
606.13	1.595
606.32	1.604
606.51	1.610
606.70	1.617
606.90	1.626
607.09	1.627
607.28	1.620
607.48	1.632
607.67	1.619
607.86	1.606
608.05	1.606
608.25	1.589
608.44	1.608
608.63	1.596
608.83	1.606
609.02	1.596
609.21	1.591
609.40	1.599
609.60	1.590
609.79	1.588
609.98	1.590
610.17	1.593
610.37	1.588
610.56	1.580
610.75	1.583
610.95	1.567
611.14	1.558
611.33	1.556
611.52	1.535
611.72	1.535
611.91	1.552
612.10	1.562
612.29	1.550
612.49	1.543
612.68	1.534
612.87	1.543
613.06	1.544
613.26	1.576
613.45	1.591
613.64	1.618
613.83	1.604
614.03	1.603
614.22	1.598
614.41	1.593
614.60	1.610
614.79	1.633
614.99	1.635
615.18	1.628
615.37	1.622
615.56	1.596
615.76	1.603
615.95	1.609
616.14	1.586
616.33	1.591
616.53	1.613
616.72	1.621
616.91	1.608
617.10	1.581
617.29	1.577
617.49	1.567
617.68	1.583
617.87	1.564
618.06	1.569
618.25	1.597
618.45	1.599
618.64	1.585
618.83	1.587
619.02	1.590
619.21	1.618
619.41	1.643
619.60	1.654
619.79	1.651
619.98	1.666
620.17	1.694
620.37	1.694
620.56	1.697
620.75	1.707
620.94	1.709
621.13	1.703
621.33	1.698
621.52	1.685
621.71	1.705
621.90	1.708
622.09	1.687
622.28	1.674
622.48	1.651
622.67	1.650
622.86	1.649
623.05	1.636
623.24	1.636
623.44	1.651
623.63	1.654
623.82	1.646
624.01	1.642
624.20	1.639
624.39	1.635
624.59	1.654
624.78	1.667
624.97	1.674
625.16	1.673
625.35	1.687
625.54	1.667
625.73	1.661
625.93	1.639
626.12	1.642
626.31	1.653
626.50	1.654
626.69	1.651
626.88	1.642
627.07	1.655
627.27	1.668
627.46	1.672
627.65	1.682
627.84	1.685
628.03	1.690
628.22	1.678
628.41	1.687
628.61	1.703
628.80	1.698
628.99	1.703
629.18	1.669
629.37	1.670
629.56	1.672
629.75	1.661
629.94	1.678
630.14	1.694
630.33	1.730
630.52	1.727
630.71	1.712
630.90	1.732
631.09	1.733
631.28	1.742
631.47	1.735
631.66	1.733
631.86	1.753
632.05	1.741
632.24	1.737
632.43	1.707
632.62	1.710
632.81	1.714
633.00	1.729
633.19	1.732
633.38	1.756
633.57	1.751
633.77	1.740
633.96	1.743
634.15	1.745
634.34	1.748
634.53	1.756
634.72	1.745
634.91	1.726
635.10	1.714
635.29	1.714
635.48	1.726
635.67	1.743
635.86	1.752
636.05	1.761
636.25	1.765
636.44	1.776
636.63	1.779
636.82	1.814
637.01	1.848
637.20	1.836
637.39	1.845
637.58	1.822
637.77	1.810
637.96	1.824
638.15	1.813
638.34	1.821
638.53	1.819
638.72	1.805
638.91	1.784
639.10	1.804
639.30	1.818
639.49	1.834
639.68	1.825
639.87	1.835
640.06	1.825
640.25	1.820
640.44	1.800
640.63	1.797
640.82	1.797
641.01	1.812
641.20	1.774
641.39	1.765
641.58	1.747
641.77	1.758
641.96	1.776
642.15	1.781
642.34	1.793
642.53	1.824
642.72	1.813
642.91	1.844
643.10	1.834
643.29	1.844
643.48	1.860
643.67	1.838
643.86	1.854
644.05	1.856
644.24	1.847
644.43	1.853
644.62	1.847
644.81	1.831
645.00	1.833
645.19	1.829
645.38	1.825
645.57	1.825
645.76	1.851
645.95	1.848
646.14	1.828
646.33	1.853
646.52	1.834
646.71	1.853
646.90	1.892
647.09	1.881
647.28	1.899
647.47	1.894
647.66	1.909
647.85	1.912
648.04	1.892
648.23	1.901
648.42	1.897
648.61	1.902
648.80	1.872
648.99	1.863
649.18	1.859
649.37	1.858
649.56	1.876
649.75	1.857
649.94	1.842
650.13	1.870
650.32	1.877
650.51	1.866
650.70	1.859
650.89	1.862
651.08	1.863
651.27	1.872
651.46	1.866
651.65	1.861
651.83	1.868
652.02	1.889
652.21	1.892
652.40	1.896
652.59	1.917
652.78	1.932
652.97	1.936
653.16	1.929
653.35	1.915
653.54	1.919
653.73	1.942
653.92	1.933
654.11	1.930
654.30	1.931
654.49	1.943
654.68	1.936
654.86	1.939
655.05	1.944
655.24	1.932
655.43	1.909
655.62	1.889
655.81	1.868
656.00	1.863
656.19	1.878
656.38	1.855
656.57	1.841
656.76	1.844
656.95	1.841
657.13	1.841
657.32	1.877
657.51	1.898
657.70	1.947
657.89	1.979
658.08	1.986
658.27	1.975
658.46	1.968
658.65	1.973
658.84	1.961
659.02	1.964
659.21	1.990
659.40	1.988
659.59	2.036
659.78	2.021
659.97	2.017
660.16	2.045
660.35	2.039
660.54	2.054
660.72	2.050
660.91	2.053
661.10	2.054
661.29	2.038
661.48	2.031
661.67	1.995
661.86	1.997
662.05	1.978
662.23	1.967
662.42	1.977
662.61	1.994
662.80	2.002
662.99	2.038
663.18	2.042
663.37	2.029
663.56	2.036
663.74	2.021
663.93	2.019
664.12	2.053
664.31	2.025
664.50	2.030
664.69	2.058
664.87	2.069
665.06	2.051
665.25	2.053
665.44	2.069
665.63	2.073
665.82	2.074
666.01	2.072
666.19	2.070
666.38	2.095
666.57	2.080
666.76	2.047
666.95	2.023
667.14	2.011
667.32	2.002
667.51	1.998
667.70	1.984
667.89	2.031
668.08	2.031
668.26	2.038
668.45	2.009
668.64	2.022
668.83	2.041
669.02	2.077
669.21	2.097
669.39	2.094
669.58	2.080
669.77	2.101
669.96	2.098
670.15	2.089
670.33	2.061
670.52	2.079
670.71	2.072
670.90	2.049
671.09	2.014
671.27	2.013
671.46	1.996
671.65	2.031
671.84	2.033
672.03	2.027
672.21	2.068
672.40	2.072
672.59	2.049
672.78	2.055
672.96	2.069
673.15	2.072
673.34	2.073
673.53	2.097
673.72	2.073
673.90	2.072
674.09	2.088
674.28	2.073
674.47	2.090
674.65	2.119
674.84	2.125
675.03	2.132
675.22	2.131
675.41	2.134
675.59	2.107
675.78	2.146
675.97	2.151
676.16	2.136
676.34	2.142
676.53	2.119
676.72	2.097
676.91	2.111
677.09	2.099
677.28	2.146
677.47	2.145
677.66	2.193
677.84	2.161
678.03	2.178
678.22	2.169
678.41	2.169
678.59	2.198
678.78	2.232
678.97	2.238
679.15	2.258
679.34	2.247
679.53	2.241
679.72	2.249
679.90	2.266
680.09	2.229
680.28	2.242
680.47	2.227
680.65	2.208
680.84	2.211
681.03	2.223
681.21	2.220
681.40	2.206
681.59	2.217
681.78	2.238
681.96	2.246
682.15	2.290
682.34	2.289
682.52	2.283
682.71	2.277
682.90	2.286
683.08	2.275
683.27	2.276
683.46	2.262
683.65	2.271
683.83	2.234
684.02	2.221
684.21	2.179
684.39	2.160
684.58	2.213
684.77	2.245
684.95	2.232
685.14	2.214
685.33	2.213
685.51	2.240
685.70	2.211
685.89	2.233
686.07	2.237
686.26	2.265
686.45	2.300
686.63	2.258
686.82	2.267
687.01	2.248
687.20	2.270
687.38	2.277
687.57	2.271
687.75	2.328
687.94	2.308
688.13	2.321
688.31	2.310
688.50	2.327
688.69	2.349
688.87	2.362
689.06	2.400
689.25	2.399
689.43	2.391
689.62	2.409
689.81	2.407
689.99	2.434
690.18	2.437
690.37	2.442
690.55	2.426
690.74	2.437
690.93	2.436
691.11	2.415
691.30	2.415
691.48	2.440
691.67	2.434
691.86	2.406
692.04	2.385
692.23	2.388
692.42	2.454
692.60	2.444
692.79	2.424
692.97	2.408
693.16	2.442
693.35	2.457
693.53	2.452
693.72	2.466
693.90	2.489
694.09	2.525
694.28	2.534
694.46	2.493
694.65	2.503
694.83	2.538
695.02	2.524
695.21	2.523
695.39	2.521
695.58	2.540
695.76	2.532
695.95	2.524
696.14	2.535
696.32	2.525
696.51	2.519
696.69	2.546
696.88	2.565
697.07	2.570
697.25	2.554
697.44	2.584
697.62	2.558
697.81	2.567
697.99	2.540
698.18	2.514
698.37	2.500
698.55	2.521
698.74	2.491
698.92	2.472
699.11	2.468
699.29	2.469
699.48	2.447
699.67	2.452
699.85	2.440
700.04	2.470
700.22	2.491
700.41	2.527
700.59	2.512
700.78	2.527
700.96	2.541
701.15	2.588
701.34	2.568
701.52	2.582
701.71	2.601
701.89	2.664
702.08	2.643
702.26	2.628
702.45	2.644
702.63	2.641
702.82	2.626
703.00	2.636
703.19	2.601
703.38	2.669
703.56	2.665
703.75	2.639
703.93	2.598
704.12	2.631
704.30	2.634
704.49	2.629
704.67	2.660
704.86	2.660
705.04	2.657
705.23	2.695
705.41	2.640
705.60	2.643
705.78	2.689
705.97	2.677
706.15	2.663
706.34	2.678
706.52	2.673
706.71	2.673
706.89	2.697
707.08	2.678
707.26	2.633
707.45	2.683
707.63	2.662
707.82	2.626
708.00	2.620
708.19	2.625
708.37	2.649
708.56	2.641
708.74	2.631
708.93	2.654
709.11	2.668
709.30	2.705
709.48	2.689
709.67	2.691
709.85	2.689
710.04	2.771
710.22	2.814
710.41	2.784
710.59	2.805
710.77	2.836
710.96	2.828
711.14	2.788
711.33	2.788
711.51	2.789
711.70	2.799
711.88	2.813
712.07	2.778
712.25	2.749
712.44	2.756
712.62	2.740
712.80	2.725
712.99	2.729
713.17	2.748
713.36	2.741
713.54	2.796
713.73	2.829
713.91	2.848
714.10	2.814
714.28	2.809
714.46	2.864
714.65	2.865
714.83	2.876
715.02	2.889
715.20	2.920
715.39	2.915
715.57	2.888
715.75	2.865
715.94	2.846
716.12	2.861
716.31	2.852
716.49	2.811
716.68	2.808
716.86	2.799
717.04	2.776
717.23	2.828
717.41	2.897
717.60	2.902
717.78	2.920
717.96	2.899
718.15	2.897
718.33	2.881
718.52	2.865
718.70	2.865
718.88	2.854
719.07	2.867
719.25	2.779
719.44	2.717
719.62	2.733
719.80	2.741
719.99	2.781
720.17	2.784
720.36	2.809
720.54	2.820
720.72	2.913
720.91	2.920
721.09	2.907
721.27	2.916
721.46	2.954
721.64	2.907
721.83	2.922
722.01	2.937
722.19	2.952
722.38	2.975
722.56	2.996
722.74	2.893
722.93	2.914
723.11	2.910
723.30	2.920
723.48	2.892
723.66	2.908
723.85	2.933
724.03	2.933
724.21	2.959
724.40	2.952
724.58	2.965
724.76	2.979
724.95	2.907
725.13	3.002
725.31	3.037
725.50	3.057
725.68	3.032
725.86	3.013
726.05	3.027
726.23	3.008
726.41	3.023
726.60	3.001
726.78	3.020
726.96	3.094
727.15	3.015
727.33	3.061
727.51	3.055
727.70	3.058
727.88	3.035
728.06	3.061
728.25	3.029
728.43	3.010
728.61	3.046
728.80	3.034
728.98	3.055
729.16	3.072
729.34	3.028
729.53	3.021
729.71	3.084
729.89	3.121
730.08	3.069
730.26	3.105
730.44	3.125
730.63	3.103
730.81	3.135
730.99	3.137
731.17	3.231
731.36	3.238
731.54	3.240
731.72	3.238
731.91	3.243
732.09	3.259
732.27	3.266
732.45	3.275
732.64	3.292
732.82	3.248
733.00	3.260
733.19	3.180
733.37	3.201
733.55	3.190
733.73	3.192
733.92	3.201
734.10	3.246
734.28	3.229
734.46	3.217
734.65	3.207
734.83	3.257
735.01	3.236
735.19	3.246
735.38	3.246
735.56	3.272
735.74	3.273
735.92	3.235
736.11	3.212
736.29	3.255
736.47	3.300
736.65	3.309
736.84	3.322
737.02	3.341
737.20	3.369
737.38	3.385
737.57	3.405
737.75	3.402
737.93	3.416
738.11	3.399
738.30	3.365
738.48	3.353
738.66	3.340
738.84	3.328
739.02	3.285
739.21	3.246
739.39	3.259
739.57	3.288
739.75	3.250
739.93	3.293
740.12	3.309
740.30	3.348
740.48	3.318
740.66	3.313
740.85	3.345
741.03	3.373
741.21	3.402
741.39	3.371
741.57	3.319
741.76	3.358
741.94	3.311
742.12	3.338
742.30	3.354
742.48	3.368
742.66	3.384
742.85	3.339
743.03	3.401
743.21	3.418
743.39	3.422
743.57	3.425
743.76	3.407
743.94	3.433
744.12	3.398
744.30	3.372
744.48	3.424
744.66	3.395
744.85	3.391
745.03	3.322
745.21	3.348
745.39	3.344
745.57	3.421
745.75	3.453
745.94	3.447
746.12	3.482
746.30	3.514
746.48	3.503
746.66	3.558
746.84	3.512
747.02	3.539
747.21	3.509
747.39	3.502
747.57	3.478
747.75	3.463
747.93	3.501
748.11	3.519
748.29	3.521
748.48	3.438
748.66	3.475
748.84	3.516
749.02	3.515
749.20	3.530
749.38	3.474
749.56	3.401
749.75	3.439
749.93	3.363
750.11	3.361
750.29	3.298
750.47	3.392
750.65	3.315
750.83	3.327
751.01	3.304
751.19	3.301
751.38	3.408
751.56	3.481
751.74	3.481
751.92	3.554
752.10	3.531
752.28	3.618
752.46	3.601
752.64	3.667
752.82	3.726
753.00	3.796
753.19	3.810
753.37	3.745
753.55	3.723
753.73	3.701
753.91	3.686
754.09	3.625
754.27	3.544
754.45	3.566
754.63	3.626
754.81	3.542
754.99	3.517
755.17	3.575
755.36	3.654
755.54	3.679
755.72	3.714
755.90	3.704
756.08	3.736
756.26	3.806
756.44	3.815
756.62	3.760
756.80	3.881
756.98	3.835
757.16	3.759
757.34	3.803
757.52	3.817
757.70	3.787
757.88	3.805
758.06	3.808
758.24	3.782
758.42	3.755
758.61	3.782
758.79	3.722
758.97	3.762
759.15	3.737
759.33	3.671
759.51	3.642
759.69	3.639
759.87	3.653
760.05	3.704
760.23	3.704
760.41	3.711
760.59	3.674
760.77	3.681
760.95	3.677
761.13	3.741
761.31	3.760
761.49	3.771
761.67	3.823
761.85	3.836
762.03	3.857
762.21	3.900
762.39	3.877
762.57	3.918
762.75	3.886
762.93	3.873
763.11	3.872
763.29	3.861
763.47	3.852
763.65	3.811
763.83	3.808
764.01	3.788
764.19	3.781
764.37	3.829
764.55	3.794
764.73	3.816
764.91	3.838
765.09	3.832
765.27	3.827
765.45	3.870
765.63	3.911
765.81	3.907
765.99	3.930
766.17	3.924
766.35	3.885
766.53	3.921
766.71	3.959
766.89	3.976
767.07	3.979
767.25	4.024
767.43	3.994
767.61	4.032
767.78	4.031
767.96	4.017
768.14	4.037
768.32	4.073
768.50	4.062
768.68	4.052
768.86	4.029
769.04	4.034
769.22	4.054
769.40	4.064
769.58	4.022
769.76	4.054
769.94	4.106
770.12	4.121
770.30	4.068
770.48	4.084
770.66	4.093
770.84	4.122
771.01	4.133
771.19	4.071
771.37	4.115
771.55	4.181
771.73	4.158
771.91	4.142
772.09	4.093
772.27	4.175
772.45	4.207
772.63	4.216
772.81	4.165
772.99	4.209
773.16	4.180
773.34	4.212
773.52	4.195
773.70	4.212
773.88	4.259
774.06	4.357
774.24	4.362
774.42	4.362
774.60	4.370
774.78	4.365
774.95	4.312
775.13	4.377
775.31	4.302
775.49	4.291
775.67	4.301
775.85	4.218
776.03	4.196
776.21	4.143
776.38	4.125
776.56	4.174
776.74	4.227
776.92	4.274
777.10	4.305
777.28	4.375
777.46	4.349
777.64	4.383
777.81	4.502
777.99	4.417
778.17	4.445
778.35	4.505
778.53	4.430
778.71	4.524
778.89	4.501
779.06	4.499
779.24	4.464
779.42	4.409
779.60	4.349
779.78	4.317
779.96	4.418
780.13	4.435
780.31	4.495
780.49	4.538
780.67	4.460
780.85	4.537
781.03	4.516
781.20	4.458
781.38	4.495
781.56	4.493
781.74	4.452
781.92	4.379
782.10	4.359
782.27	4.324
782.45	4.339
782.63	4.361
782.81	4.343
782.99	4.369
783.17	4.501
783.34	4.527
783.52	4.621
783.70	4.624
783.88	4.712
784.06	4.765
784.23	4.685
784.41	4.618
784.59	4.611
784.77	4.611
784.95	4.766
785.12	4.680
785.30	4.726
785.48	4.762
785.66	4.755
785.83	4.759
786.01	4.779
786.19	4.812
786.37	4.735
786.55	4.725
786.72	4.699
786.90	4.637
787.08	4.674
787.26	4.704
787.43	4.563
787.61	4.554
787.79	4.557
787.97	4.453
788.15	4.504
788.32	4.608
788.50	4.665
788.68	4.601
788.86	4.536
789.03	4.507
789.21	4.490
789.39	4.578
789.57	4.642
789.74	4.703
789.92	4.790
790.10	4.805
790.28	4.826
790.45	4.851
790.63	4.891
790.81	4.942
790.99	4.928
791.16	4.889
791.34	4.885
791.52	4.813
791.69	4.745
791.87	4.728
792.05	4.702
792.23	4.696
792.40	4.626
792.58	4.644
792.76	4.605
792.94	4.676
793.11	4.773
793.29	4.766
793.47	4.813
793.64	4.795
793.82	4.882
794.00	4.744
794.18	4.742
794.35	4.793
794.53	4.834
794.71	4.819
794.88	4.874
795.06	4.838
795.24	4.882
795.41	4.872
795.59	4.991
795.77	4.975
795.94	5.021
796.12	5.093
796.30	5.039
796.48	5.096
796.65	5.114
796.83	5.044
797.01	5.073
797.18	5.050
797.36	5.129
797.54	5.077
797.71	5.057
797.89	5.167
798.07	5.193
798.24	5.238
798.42	5.120
798.60	5.130
798.77	5.206
798.95	5.109
799.13	5.118
799.30	5.031
799.48	5.111
799.66	5.105
799.83	5.047
800.01	4.976
800.18	4.963
800.36	5.048
800.54	5.092
800.71	4.986
800.89	5.025
801.07	4.971
801.24	5.070
801.42	5.020
801.60	5.073
801.77	4.986
801.95	4.897
802.12	4.962
802.30	4.958
802.48	4.887
802.65	5.054
802.83	5.165
803.01	5.323
803.18	5.227
803.36	5.221
803.53	5.235
803.71	5.254
803.89	5.291
804.06	5.267
804.24	5.324
804.41	5.412
804.59	5.303
804.77	5.394
804.94	5.354
805.12	5.416
805.29	5.422
805.47	5.363
805.65	5.467
805.82	5.588
806.00	5.662
806.17	5.603
806.35	5.562
806.53	5.559
806.70	5.396
806.88	5.385
807.05	5.388
807.23	5.271
807.40	5.363
807.58	5.416
807.76	5.352
807.93	5.221
808.11	5.160
808.28	5.193
808.46	5.343
808.63	5.402
808.81	5.398
808.99	5.396
809.16	5.544
809.34	5.422
809.51	5.274
809.69	5.395
809.86	5.424
810.04	5.481
810.21	5.460
810.39	5.354
810.57	5.315
810.74	5.327
810.92	5.432
811.09	5.352
811.27	5.351
811.44	5.605
811.62	5.632
811.79	5.691
811.97	5.629
812.14	5.620
812.32	5.653
812.49	5.586
812.67	5.587
812.84	5.376
813.02	5.440
813.19	5.490
813.37	5.274
813.55	5.124
813.72	5.066
813.90	5.122
814.07	5.127
814.25	5.114
814.42	5.400
814.60	5.374
814.77	5.517
814.95	5.469
815.12	5.484
815.30	5.481
815.47	5.520
815.65	5.641
815.82	5.855
816.00	5.964
816.17	5.945
816.35	5.623
816.52	5.767
816.69	5.890
816.87	6.065
817.04	6.097
817.22	6.118
817.39	6.126
817.57	6.064
817.74	6.013
817.92	6.054
818.09	5.925
818.27	6.050
818.44	5.942
818.62	5.754
818.79	5.733
818.97	5.746
819.14	5.739
819.32	5.716
819.49	5.872
819.66	5.837
819.84	5.773
820.01	5.872
820.19	5.896
820.36	5.899
820.54	5.945
820.71	5.890
820.89	5.900
821.06	5.992
821.23	6.008
821.41	5.915
821.58	5.872
821.76	5.807
821.93	5.772
822.11	5.709
822.28	5.696
822.45	5.669
822.63	5.654
822.80	5.635
822.98	5.627
823.15	5.626
823.33	5.627
823.50	5.634
823.67	5.659
823.85	5.672
824.02	5.717
824.20	5.754
824.37	5.819
824.54	5.882
824.72	5.958
824.89	5.984
825.07	6.019
825.24	6.085
825.41	6.117
825.59	6.153
825.76	6.219
825.94	6.291
826.11	6.279
826.28	6.288
826.46	6.307
826.63	6.256
826.80	6.298
826.98	6.282
827.15	6.249
827.33	6.275
827.50	6.248
827.67	6.230
827.85	6.185
828.02	6.219
828.19	6.219
828.37	6.173
828.54	6.239
828.72	6.224
828.89	6.242
829.06	6.241
829.24	6.233
829.41	6.247
829.58	6.245
829.76	6.282
829.93	6.291
830.10	6.266
830.28	6.324
830.45	6.304
830.62	6.285
830.80	6.316
830.97	6.274
831.14	6.250
831.32	6.369
831.49	6.348
831.66	6.424
831.84	6.417
832.01	6.466
832.18	6.568
832.36	6.519
832.53	6.597
832.70	6.629
832.88	6.664
833.05	6.694
833.22	6.665
833.40	6.653
833.57	6.576
833.74	6.575
833.91	6.561
834.09	6.568
834.26	6.527
834.43	6.503
834.61	6.440
834.78	6.461
834.95	6.415
835.13	6.332
835.30	6.330
835.47	6.351
835.64	6.280
835.82	6.252
835.99	6.236
836.16	6.337
836.34	6.374
836.51	6.459
836.68	6.436
836.85	6.516
837.03	6.709
837.20	6.820
837.37	6.819
837.54	6.952
837.72	7.027
837.89	6.913
838.06	6.810
838.24	6.761
838.41	6.810
838.58	6.940
838.75	6.922
838.93	6.850
839.10	6.847
839.27	6.953
839.44	6.980
839.62	6.927
839.79	7.165
839.96	7.198
840.13	7.236
840.31	7.183
840.48	7.061
840.65	7.006
840.82	7.035
840.99	7.055
841.17	6.997
841.34	7.103
841.51	7.188
841.68	7.063
841.86	6.921
842.03	6.930
842.20	6.983
842.37	7.127
842.55	7.070
842.72	6.923
842.89	6.839
843.06	6.802
843.23	6.456
843.41	6.477
843.58	6.384
843.75	6.895
843.92	6.976
844.09	7.000
844.27	6.980
844.44	7.176
844.61	7.302
844.78	7.482
844.95	7.458
845.13	7.811
845.30	7.706
845.47	7.743
845.64	7.700
845.81	7.471
845.98	7.330
846.16	7.124
846.33	7.076
846.50	7.201
846.67	7.116
846.84	7.373
847.02	7.385
847.19	7.339
847.36	7.222
847.53	6.818
847.70	6.864
847.87	7.031
848.04	7.068
848.22	7.094
848.39	6.999
848.56	6.996
848.73	6.884
848.90	6.422
849.07	6.802
849.25	6.924
849.42	7.283
849.59	7.271
849.76	7.458
849.93	8.100
850.10	8.053
850.27	7.855
850.45	8.136
850.62	8.315
850.79	8.581
850.96	8.182
851.13	8.283
851.30	7.857
851.47	7.876
851.64	7.532
851.82	7.109
851.99	7.424
852.16	7.814
852.33	7.351
852.50	7.240
852.67	7.060
852.84	7.304
853.01	7.284
853.18	7.714
853.35	7.532
853.53	7.504
853.70	7.321
853.87	7.043
854.04	6.720
854.21	7.192
854.38	6.743
854.55	7.069
854.72	6.697
854.89	6.455
855.06	6.396
855.23	6.598
855.41	6.723
855.58	6.694
855.75	6.805
855.92	6.720
856.09	6.590
856.26	7.230
856.43	6.867
856.60	6.942
856.77	6.938
856.94	6.625
857.11	6.403
857.28	6.126
857.45	6.264
857.62	6.299
857.80	6.165
857.97	5.861
858.14	5.375
858.31	5.612
858.48	5.858
858.65	6.065
858.82	6.375
858.99	6.524
859.16	6.767
859.33	6.883
859.50	6.961
859.67	7.794
859.84	7.652
860.01	7.900
860.18	7.968
860.35	7.913
860.52	8.023
860.69	7.569
860.86	7.978
861.03	7.764
861.20	7.550
861.37	7.154
861.54	6.814
861.71	7.107
861.88	7.305
862.05	7.163
862.22	6.912
862.39	6.901
862.56	6.967
862.73	6.764
862.90	6.961
863.07	7.375
863.24	7.570
863.41	7.089
863.58	7.284
863.75	7.189
863.92	7.196
864.09	7.390
864.26	7.505
864.43	7.644
864.60	7.619
864.77	7.628
864.94	7.552
865.11	7.904
865.28	8.407
865.45	8.343
865.62	8.454
865.79	8.820
865.96	8.603
866.13	8.450
866.30	8.401
866.47	8.395
866.64	8.175
866.81	7.957
866.98	7.932
867.15	7.901
867.32	7.657
867.49	7.238
867.66	7.025
867.82	7.357
867.99	7.184
868.16	7.663
868.33	7.579
868.50	7.726
868.67	8.070
868.84	7.969
869.01	7.943
869.18	8.373
869.35	8.969
869.52	9.351
869.69	9.804
869.86	10.166
870.03	9.923
870.19	9.833
870.36	10.018
870.53	9.679
870.70	9.585
870.87	10.036
871.04	9.723
871.21	9.348
871.38	9.487
871.55	9.069
871.72	8.958
871.89	8.844
872.05	8.891
872.22	8.404
872.39	8.265
872.56	8.474
872.73	8.018
872.90	8.455
873.07	8.570
873.24	8.116
873.41	8.195
873.57	8.248
873.74	8.395
873.91	8.481
874.08	8.798
874.25	9.243
874.42	9.001
874.59	9.236
874.76	8.568
874.92	8.718
875.09	8.698
875.26	8.533
875.43	8.246
875.60	8.196
875.77	8.225
875.94	8.239
876.11	8.441
876.27	8.603
876.44	8.512
876.61	8.897
876.78	8.771
876.95	8.797
877.12	8.998
877.28	9.428
877.45	9.449
877.62	9.556
877.79	9.744
877.96	9.556
878.13	9.550
878.29	9.277
878.46	9.362
878.63	9.313
878.80	9.269
878.97	9.412
879.14	9.221
879.30	9.337
879.47	9.291
879.64	9.178
879.81	9.184
879.98	9.203
880.14	9.262
880.31	9.171
880.48	9.302
880.65	9.454
880.82	9.298
880.98	9.247
881.15	9.157
881.32	9.074
881.49	9.033
881.66	8.919
881.82	8.875
881.99	8.821
882.16	8.811
882.33	8.762
882.50	8.713
882.66	8.713
882.83	8.715
883.00	8.697
883.17	8.722
883.33	8.750
883.50	8.833
883.67	8.850
883.84	8.927
884.01	8.952
884.17	8.990
884.34	9.029
884.51	9.107
884.68	9.153
884.84	9.206
885.01	9.211
885.18	9.215
885.35	9.187
885.51	9.215
885.68	9.250
885.85	9.361
886.02	9.451
886.18	9.521
886.35	9.446
886.52	9.480
886.69	9.575
886.85	9.731
887.02	9.752
887.19	9.724
887.35	9.999
887.52	9.924
887.69	9.993
887.86	10.030
888.02	9.975
888.19	10.066
888.36	8.684
888.53	12.194
888.69	10.656
888.86	9.478
889.03	10.350
>>>>>End Spectral Data<<<<<
