OOIBase32 Version 2.0.6.5 Data File
++++++++++++++++++++++++++++++++++++
Date: 11-17-2016, 11:08:47
User: Valued Ocean Optics Customer
Spectrometer Serial Number: USB4C01507
Spectrometer Channel: Master
Integration Time (msec): 49
Spectra Averaged: 25
Boxcar Smoothing: 5
Correct for Electrical Dark: Enabled
Time Normalized: Disabled
Dual-beam Reference: Disabled
Reference Channel: Master
Temperature: Not acquired
Spectrometer Type: S4000
ADC Type: USB4000
Number of Pixels in File: 3648
Graph Title: 
>>>>>Begin Spectral Data<<<<<
178.53	1645.445
178.74	2276.673
178.96	125.962
179.18	-13.450
179.39	432.791
179.61	-74.033
179.82	34.692
180.04	-7.829
180.25	162.278
180.47	108.652
180.69	228.114
180.90	-747.579
181.12	-70.553
181.33	212.375
181.55	-39.757
181.76	5712.211
181.98	121.917
182.20	-437.153
182.41	51.874
182.63	63.657
182.84	-2.598
183.06	3.231
183.27	7.408
183.49	14.607
183.71	4.335
183.92	-3.973
184.14	-14.477
184.35	-5.339
184.57	-10.305
184.78	-0.422
185.00	0.190
185.21	4.890
185.43	21.923
185.65	18.363
185.86	17.067
186.08	21.465
186.29	30.976
186.51	36.747
186.72	32.303
186.94	39.537
187.15	35.180
187.37	39.374
187.58	33.021
187.80	27.223
188.02	31.054
188.23	30.474
188.45	34.210
188.66	30.162
188.88	22.385
189.09	27.234
189.31	25.148
189.52	25.452
189.74	24.052
189.95	30.253
190.17	27.890
190.38	33.344
190.60	33.525
190.82	35.545
191.03	35.914
191.25	31.268
191.46	27.197
191.68	25.837
191.89	22.237
192.11	24.100
192.32	16.745
192.54	13.013
192.75	13.059
192.97	11.038
193.18	10.462
193.40	8.930
193.61	16.496
193.83	20.190
194.04	14.745
194.26	26.966
194.48	23.495
194.69	23.150
194.91	19.289
195.12	13.555
195.34	18.121
195.55	9.987
195.77	10.368
195.98	5.093
196.20	-0.929
196.41	-2.670
196.63	-10.037
196.84	-8.901
197.06	-2.010
197.27	-3.719
197.49	1.543
197.70	-6.398
197.92	-3.408
198.13	-3.543
198.35	-1.729
198.56	0.539
198.78	1.317
198.99	2.079
199.21	3.153
199.42	-3.812
199.64	11.076
199.85	7.819
200.07	13.087
200.28	18.294
200.50	16.098
200.71	19.928
200.93	19.934
201.14	23.893
201.36	18.595
201.57	15.688
201.79	16.758
202.00	10.244
202.22	11.632
202.43	9.349
202.65	1.371
202.86	2.178
203.08	0.082
203.29	0.869
203.51	-5.520
203.72	-0.889
203.94	2.633
204.15	3.753
204.37	6.636
204.58	1.189
204.80	5.312
205.01	13.151
205.22	15.167
205.44	15.232
205.65	11.582
205.87	10.587
206.08	8.417
206.30	9.036
206.51	5.577
206.73	4.768
206.94	9.012
207.16	5.118
207.37	-1.016
207.59	-0.812
207.80	-1.266
208.02	3.242
208.23	10.466
208.45	12.575
208.66	6.625
208.88	8.926
209.09	9.215
209.30	8.528
209.52	9.122
209.73	10.434
209.95	11.635
210.16	10.049
210.38	10.253
210.59	6.169
210.81	6.430
211.02	7.412
211.24	6.285
211.45	3.055
211.66	3.667
211.88	4.026
212.09	5.440
212.31	3.951
212.52	6.300
212.74	2.124
212.95	3.034
213.17	3.708
213.38	5.980
213.60	9.766
213.81	12.815
214.02	11.696
214.24	11.593
214.45	6.593
214.67	4.414
214.88	1.901
215.10	4.327
215.31	3.400
215.53	1.967
215.74	3.668
215.95	4.032
216.17	2.173
216.38	1.184
216.60	0.555
216.81	4.761
217.03	4.971
217.24	7.038
217.45	6.122
217.67	8.510
217.88	8.337
218.10	5.933
218.31	3.643
218.53	3.248
218.74	2.652
218.95	0.375
219.17	-3.071
219.38	-3.557
219.60	-2.233
219.81	-0.927
220.03	-0.797
220.24	-0.490
220.45	0.683
220.67	1.188
220.88	2.385
221.10	3.874
221.31	5.196
221.53	6.594
221.74	5.684
221.95	3.984
222.17	2.551
222.38	2.356
222.60	2.273
222.81	0.970
223.02	0.952
223.24	0.772
223.45	1.201
223.67	0.853
223.88	0.695
224.09	1.614
224.31	1.955
224.52	3.870
224.74	3.157
224.95	3.780
225.16	5.087
225.38	4.337
225.59	4.273
225.81	3.779
226.02	3.757
226.23	3.136
226.45	3.406
226.66	3.111
226.88	2.848
227.09	3.224
227.30	2.790
227.52	2.852
227.73	2.842
227.95	2.757
228.16	2.843
228.37	2.869
228.59	2.973
228.80	2.958
229.02	2.989
229.23	2.990
229.44	2.958
229.66	2.957
229.87	2.936
230.08	2.955
230.30	2.920
230.51	2.885
230.73	2.893
230.94	2.806
231.15	2.669
231.37	2.754
231.58	2.665
231.80	2.562
232.01	2.618
232.22	2.478
232.44	2.681
232.65	2.806
232.86	2.562
233.08	2.532
233.29	2.679
233.51	2.817
233.72	2.734
233.93	2.704
234.15	2.790
234.36	3.011
234.57	2.918
234.79	2.880
235.00	3.088
235.21	3.458
235.43	3.560
235.64	3.570
235.86	3.429
236.07	3.169
236.28	2.975
236.50	2.726
236.71	2.723
236.92	2.791
237.14	2.848
237.35	2.540
237.56	2.822
237.78	2.533
237.99	2.424
238.20	2.488
238.42	2.686
238.63	2.954
238.84	3.379
239.06	3.012
239.27	2.884
239.48	2.711
239.70	2.877
239.91	2.449
240.13	2.493
240.34	2.535
240.55	2.529
240.77	2.642
240.98	2.599
241.19	2.637
241.41	2.646
241.62	2.597
241.83	2.548
242.05	2.484
242.26	2.480
242.47	2.465
242.69	2.440
242.90	2.483
243.11	2.440
243.33	2.385
243.54	2.230
243.75	2.251
243.97	2.237
244.18	2.267
244.39	2.284
244.61	2.208
244.82	2.292
245.03	2.283
245.24	2.228
245.46	2.276
245.67	2.348
245.88	2.350
246.10	2.366
246.31	2.363
246.52	2.352
246.74	2.344
246.95	2.349
247.16	2.312
247.38	2.314
247.59	2.324
247.80	2.353
248.02	2.347
248.23	2.359
248.44	2.330
248.66	2.351
248.87	2.390
249.08	2.435
249.29	2.524
249.51	2.656
249.72	2.754
249.93	2.848
250.15	2.768
250.36	2.717
250.57	2.650
250.79	2.809
251.00	2.784
251.21	2.765
251.42	2.661
251.64	2.462
251.85	2.491
252.06	2.499
252.28	2.316
252.49	2.388
252.70	2.418
252.91	2.465
253.13	2.474
253.34	2.487
253.55	2.476
253.77	2.499
253.98	2.801
254.19	2.722
254.40	2.607
254.62	2.743
254.83	2.449
255.04	2.555
255.26	2.571
255.47	2.219
255.68	2.143
255.89	2.068
256.11	2.066
256.32	1.666
256.53	1.696
256.75	1.747
256.96	1.852
257.17	1.949
257.38	2.019
257.60	2.123
257.81	2.253
258.02	2.210
258.23	2.151
258.45	2.064
258.66	2.176
258.87	2.121
259.09	2.066
259.30	2.041
259.51	2.030
259.72	1.997
259.94	1.954
260.15	1.939
260.36	1.968
260.57	2.003
260.79	2.034
261.00	2.029
261.21	2.040
261.42	2.107
261.64	2.088
261.85	2.097
262.06	2.135
262.27	2.172
262.49	2.161
262.70	2.196
262.91	2.174
263.12	2.101
263.34	2.094
263.55	2.074
263.76	1.910
263.97	2.079
264.19	2.166
264.40	2.065
264.61	2.015
264.82	2.019
265.04	1.934
265.25	1.877
265.46	1.874
265.67	1.900
265.88	1.835
266.10	1.862
266.31	1.721
266.52	1.686
266.73	1.778
266.95	1.801
267.16	1.859
267.37	1.854
267.58	1.784
267.80	1.905
268.01	1.865
268.22	1.884
268.43	1.964
268.64	2.072
268.86	2.047
269.07	1.966
269.28	1.910
269.49	1.817
269.71	1.817
269.92	1.826
270.13	1.852
270.34	1.899
270.55	2.013
270.77	2.021
270.98	1.962
271.19	2.039
271.40	2.064
271.61	2.026
271.83	2.102
272.04	2.091
272.25	2.191
272.46	2.121
272.68	2.157
272.89	2.079
273.10	2.035
273.31	2.012
273.52	1.994
273.74	1.988
273.95	1.992
274.16	2.069
274.37	2.099
274.58	2.177
274.80	2.200
275.01	2.169
275.22	2.170
275.43	2.218
275.64	2.235
275.86	2.217
276.07	2.125
276.28	2.266
276.49	2.188
276.70	2.134
276.91	1.964
277.13	1.923
277.34	1.877
277.55	1.977
277.76	1.945
277.97	1.922
278.19	1.920
278.40	2.059
278.61	2.049
278.82	2.044
279.03	1.990
279.24	1.966
279.46	2.013
279.67	2.029
279.88	1.868
280.09	1.827
280.30	1.891
280.52	1.904
280.73	1.821
280.94	1.773
281.15	1.736
281.36	1.878
281.57	1.934
281.79	1.938
282.00	1.947
282.21	1.936
282.42	2.009
282.63	2.029
282.84	1.967
283.06	1.964
283.27	1.995
283.48	1.926
283.69	1.821
283.90	1.814
284.11	1.780
284.32	1.693
284.54	1.741
284.75	1.681
284.96	1.554
285.17	1.611
285.38	1.631
285.59	1.570
285.81	1.650
286.02	1.692
286.23	1.666
286.44	1.649
286.65	1.694
286.86	1.713
287.07	1.670
287.29	1.737
287.50	1.766
287.71	1.716
287.92	1.713
288.13	1.673
288.34	1.664
288.55	1.730
288.77	1.713
288.98	1.679
289.19	1.668
289.40	1.769
289.61	1.803
289.82	1.760
290.03	1.757
290.24	1.805
290.46	1.769
290.67	1.803
290.88	1.752
291.09	1.724
291.30	1.752
291.51	1.733
291.72	1.756
291.93	1.775
292.15	1.725
292.36	1.861
292.57	1.825
292.78	1.832
292.99	1.767
293.20	1.862
293.41	1.883
293.62	1.973
293.84	2.030
294.05	1.945
294.26	1.904
294.47	1.887
294.68	1.753
294.89	1.808
295.10	1.844
295.31	1.866
295.52	1.817
295.73	1.817
295.95	1.714
296.16	1.700
296.37	1.752
296.58	1.797
296.79	1.858
297.00	1.896
297.21	1.851
297.42	1.801
297.63	1.796
297.84	1.847
298.06	1.826
298.27	1.841
298.48	1.849
298.69	1.744
298.90	1.688
299.11	1.662
299.32	1.633
299.53	1.675
299.74	1.749
299.95	1.780
300.16	1.650
300.38	1.732
300.59	1.689
300.80	1.658
301.01	1.677
301.22	1.640
301.43	1.608
301.64	1.619
301.85	1.572
302.06	1.546
302.27	1.475
302.48	1.601
302.69	1.514
302.91	1.639
303.12	1.695
303.33	1.703
303.54	1.777
303.75	1.786
303.96	1.806
304.17	1.814
304.38	1.765
304.59	1.813
304.80	1.762
305.01	1.790
305.22	1.684
305.43	1.646
305.64	1.728
305.85	1.616
306.06	1.646
306.28	1.644
306.49	1.629
306.70	1.564
306.91	1.459
307.12	1.393
307.33	1.341
307.54	1.376
307.75	1.378
307.96	1.306
308.17	1.327
308.38	1.289
308.59	1.274
308.80	1.313
309.01	1.369
309.22	1.462
309.43	1.474
309.64	1.528
309.85	1.501
310.06	1.441
310.27	1.496
310.48	1.532
310.70	1.522
310.91	1.531
311.12	1.502
311.33	1.526
311.54	1.419
311.75	1.421
311.96	1.405
312.17	1.413
312.38	1.465
312.59	1.475
312.80	1.429
313.01	1.426
313.22	1.431
313.43	1.437
313.64	1.409
313.85	1.497
314.06	1.486
314.27	1.508
314.48	1.587
314.69	1.604
314.90	1.627
315.11	1.668
315.32	1.628
315.53	1.643
315.74	1.636
315.95	1.651
316.16	1.636
316.37	1.605
316.58	1.616
316.79	1.524
317.00	1.510
317.21	1.410
317.42	1.410
317.63	1.491
317.84	1.357
318.05	1.275
318.26	1.217
318.47	1.240
318.68	1.315
318.89	1.289
319.10	1.343
319.31	1.281
319.52	1.322
319.73	1.324
319.94	1.309
320.15	1.346
320.36	1.437
320.57	1.439
320.78	1.400
320.99	1.297
321.20	1.248
321.41	1.161
321.62	1.162
321.83	1.124
322.04	1.138
322.25	1.110
322.46	1.087
322.67	1.062
322.88	1.069
323.09	1.051
323.30	1.088
323.51	1.080
323.72	1.111
323.93	1.137
324.14	1.186
324.35	1.199
324.56	1.222
324.77	1.262
324.98	1.233
325.19	1.238
325.40	1.279
325.61	1.252
325.82	1.284
326.03	1.277
326.24	1.287
326.45	1.271
326.65	1.206
326.86	1.180
327.07	1.195
327.28	1.177
327.49	1.206
327.70	1.170
327.91	1.230
328.12	1.226
328.33	1.205
328.54	1.203
328.75	1.210
328.96	1.321
329.17	1.286
329.38	1.272
329.59	1.337
329.80	1.375
330.01	1.437
330.22	1.362
330.43	1.357
330.64	1.340
330.85	1.359
331.05	1.307
331.26	1.199
331.47	1.175
331.68	1.195
331.89	1.217
332.10	1.130
332.31	1.134
332.52	1.203
332.73	1.182
332.94	1.231
333.15	1.183
333.36	1.238
333.57	1.236
333.78	1.296
333.99	1.304
334.19	1.251
334.40	1.282
334.61	1.302
334.82	1.253
335.03	1.207
335.24	1.244
335.45	1.263
335.66	1.280
335.87	1.333
336.08	1.357
336.29	1.338
336.50	1.335
336.71	1.424
336.91	1.378
337.12	1.336
337.33	1.422
337.54	1.401
337.75	1.399
337.96	1.299
338.17	1.276
338.38	1.234
338.59	1.258
338.80	1.203
339.01	1.117
339.21	1.072
339.42	1.125
339.63	1.061
339.84	1.078
340.05	1.023
340.26	0.982
340.47	0.971
340.68	0.976
340.89	0.944
341.10	0.971
341.30	0.966
341.51	0.995
341.72	1.042
341.93	1.090
342.14	1.003
342.35	1.045
342.56	1.127
342.77	1.166
342.98	1.107
343.18	1.126
343.39	1.157
343.60	1.137
343.81	1.136
344.02	1.126
344.23	1.126
344.44	1.148
344.65	1.092
344.85	1.080
345.06	1.042
345.27	1.088
345.48	1.052
345.69	1.074
345.90	1.119
346.11	1.124
346.32	1.075
346.52	1.038
346.73	1.038
346.94	1.091
347.15	1.128
347.36	1.134
347.57	1.172
347.78	1.174
347.98	1.156
348.19	1.085
348.40	1.109
348.61	1.152
348.82	1.183
349.03	1.216
349.24	1.219
349.44	1.175
349.65	1.164
349.86	1.135
350.07	1.167
350.28	1.154
350.49	1.180
350.70	1.112
350.90	1.061
351.11	1.011
351.32	0.987
351.53	1.022
351.74	1.028
351.95	0.993
352.15	1.011
352.36	0.960
352.57	0.977
352.78	1.050
352.99	1.061
353.20	1.130
353.40	1.180
353.61	1.179
353.82	1.143
354.03	1.173
354.24	1.191
354.45	1.216
354.65	1.254
354.86	1.226
355.07	1.200
355.28	1.263
355.49	1.220
355.70	1.180
355.90	1.143
356.11	1.139
356.32	1.130
356.53	1.142
356.74	1.129
356.94	1.100
357.15	1.095
357.36	1.061
357.57	1.025
357.78	1.035
357.99	1.069
358.19	1.110
358.40	1.094
358.61	1.094
358.82	1.155
359.03	1.151
359.23	1.172
359.44	1.225
359.65	1.238
359.86	1.256
360.07	1.281
360.27	1.316
360.48	1.329
360.69	1.371
360.90	1.351
361.11	1.342
361.31	1.322
361.52	1.342
361.73	1.336
361.94	1.356
362.15	1.316
362.35	1.263
362.56	1.255
362.77	1.233
362.98	1.237
363.18	1.232
363.39	1.195
363.60	1.209
363.81	1.216
364.02	1.215
364.22	1.218
364.43	1.249
364.64	1.285
364.85	1.253
365.05	1.265
365.26	1.243
365.47	1.275
365.68	1.249
365.89	1.266
366.09	1.268
366.30	1.260
366.51	1.252
366.72	1.246
366.92	1.264
367.13	1.305
367.34	1.321
367.55	1.315
367.75	1.306
367.96	1.358
368.17	1.331
368.38	1.318
368.58	1.322
368.79	1.280
369.00	1.271
369.21	1.240
369.41	1.209
369.62	1.186
369.83	1.179
370.04	1.150
370.24	1.149
370.45	1.164
370.66	1.163
370.87	1.129
371.07	1.134
371.28	1.167
371.49	1.160
371.70	1.144
371.90	1.149
372.11	1.131
372.32	1.178
372.53	1.174
372.73	1.153
372.94	1.115
373.15	1.132
373.36	1.138
373.56	1.134
373.77	1.136
373.98	1.156
374.19	1.189
374.39	1.218
374.60	1.209
374.81	1.191
375.01	1.204
375.22	1.197
375.43	1.208
375.64	1.208
375.84	1.199
376.05	1.225
376.26	1.227
376.46	1.204
376.67	1.174
376.88	1.176
377.09	1.170
377.29	1.170
377.50	1.192
377.71	1.220
377.91	1.254
378.12	1.247
378.33	1.259
378.54	1.271
378.74	1.258
378.95	1.297
379.16	1.289
379.36	1.271
379.57	1.281
379.78	1.314
379.99	1.299
380.19	1.266
380.40	1.238
380.61	1.226
380.81	1.177
381.02	1.185
381.23	1.172
381.43	1.189
381.64	1.239
381.85	1.239
382.05	1.189
382.26	1.172
382.47	1.188
382.67	1.202
382.88	1.194
383.09	1.232
383.30	1.251
383.50	1.288
383.71	1.271
383.92	1.253
384.12	1.236
384.33	1.244
384.54	1.247
384.74	1.250
384.95	1.231
385.16	1.230
385.36	1.210
385.57	1.178
385.78	1.148
385.98	1.156
386.19	1.156
386.40	1.176
386.60	1.174
386.81	1.152
387.02	1.149
387.22	1.167
387.43	1.159
387.64	1.181
387.84	1.209
388.05	1.225
388.26	1.217
388.46	1.233
388.67	1.231
388.88	1.232
389.08	1.264
389.29	1.243
389.49	1.227
389.70	1.229
389.91	1.208
390.11	1.184
390.32	1.171
390.53	1.187
390.73	1.164
390.94	1.157
391.15	1.176
391.35	1.170
391.56	1.191
391.77	1.213
391.97	1.207
392.18	1.222
392.38	1.256
392.59	1.259
392.80	1.243
393.00	1.238
393.21	1.234
393.42	1.248
393.62	1.227
393.83	1.232
394.04	1.228
394.24	1.214
394.45	1.210
394.65	1.201
394.86	1.192
395.07	1.191
395.27	1.196
395.48	1.162
395.68	1.158
395.89	1.194
396.10	1.183
396.30	1.165
396.51	1.224
396.72	1.243
396.92	1.226
397.13	1.211
397.33	1.187
397.54	1.192
397.75	1.222
397.95	1.230
398.16	1.184
398.36	1.183
398.57	1.197
398.78	1.153
398.98	1.144
399.19	1.143
399.39	1.159
399.60	1.186
399.81	1.190
400.01	1.190
400.22	1.170
400.42	1.211
400.63	1.194
400.84	1.217
401.04	1.251
401.25	1.248
401.45	1.253
401.66	1.273
401.86	1.276
402.07	1.272
402.28	1.286
402.48	1.301
402.69	1.313
402.89	1.331
403.10	1.322
403.31	1.298
403.51	1.285
403.72	1.297
403.92	1.282
404.13	1.275
404.33	1.266
404.54	1.267
404.75	1.259
404.95	1.260
405.16	1.254
405.36	1.258
405.57	1.271
405.77	1.291
405.98	1.286
406.18	1.283
406.39	1.269
406.60	1.278
406.80	1.267
407.01	1.263
407.21	1.267
407.42	1.274
407.62	1.281
407.83	1.261
408.03	1.234
408.24	1.245
408.45	1.230
408.65	1.238
408.86	1.264
409.06	1.288
409.27	1.290
409.47	1.267
409.68	1.278
409.88	1.298
410.09	1.310
410.29	1.332
410.50	1.326
410.71	1.350
410.91	1.364
411.12	1.338
411.32	1.318
411.53	1.313
411.73	1.317
411.94	1.276
412.14	1.285
412.35	1.280
412.55	1.273
412.76	1.278
412.96	1.289
413.17	1.296
413.37	1.288
413.58	1.305
413.78	1.325
413.99	1.342
414.19	1.399
414.40	1.373
414.61	1.386
414.81	1.384
415.02	1.377
415.22	1.354
415.43	1.346
415.63	1.368
415.84	1.366
416.04	1.347
416.25	1.317
416.45	1.286
416.66	1.293
416.86	1.282
417.07	1.268
417.27	1.259
417.48	1.260
417.68	1.266
417.89	1.253
418.09	1.254
418.30	1.257
418.50	1.256
418.71	1.266
418.91	1.260
419.12	1.263
419.32	1.273
419.53	1.272
419.73	1.281
419.94	1.281
420.14	1.283
420.34	1.281
420.55	1.286
420.75	1.297
420.96	1.297
421.16	1.293
421.37	1.293
421.57	1.309
421.78	1.323
421.98	1.317
422.19	1.317
422.39	1.335
422.60	1.319
422.80	1.314
423.01	1.310
423.21	1.309
423.42	1.307
423.62	1.304
423.83	1.285
424.03	1.277
424.23	1.284
424.44	1.277
424.64	1.262
424.85	1.284
425.05	1.291
425.26	1.308
425.46	1.335
425.67	1.336
425.87	1.342
426.08	1.361
426.28	1.361
426.48	1.379
426.69	1.406
426.89	1.424
427.10	1.434
427.30	1.450
427.51	1.454
427.71	1.421
427.92	1.410
428.12	1.406
428.32	1.387
428.53	1.374
428.73	1.368
428.94	1.336
429.14	1.339
429.35	1.309
429.55	1.310
429.76	1.304
429.96	1.306
430.16	1.338
430.37	1.358
430.57	1.363
430.78	1.416
430.98	1.404
431.19	1.413
431.39	1.398
431.59	1.390
431.80	1.380
432.00	1.347
432.21	1.348
432.41	1.325
432.61	1.316
432.82	1.322
433.02	1.303
433.23	1.303
433.43	1.312
433.64	1.317
433.84	1.338
434.04	1.327
434.25	1.346
434.45	1.348
434.66	1.349
434.86	1.352
435.06	1.360
435.27	1.349
435.47	1.345
435.68	1.329
435.88	1.339
436.08	1.338
436.29	1.342
436.49	1.354
436.70	1.342
436.90	1.350
437.10	1.352
437.31	1.337
437.51	1.334
437.71	1.339
437.92	1.342
438.12	1.327
438.33	1.317
438.53	1.323
438.73	1.313
438.94	1.321
439.14	1.326
439.35	1.323
439.55	1.345
439.75	1.362
439.96	1.369
440.16	1.378
440.36	1.385
440.57	1.392
440.77	1.389
440.97	1.396
441.18	1.402
441.38	1.404
441.59	1.417
441.79	1.392
441.99	1.383
442.20	1.355
442.40	1.348
442.60	1.350
442.81	1.341
443.01	1.346
443.21	1.332
443.42	1.311
443.62	1.316
443.83	1.306
444.03	1.329
444.23	1.353
444.44	1.367
444.64	1.363
444.84	1.366
445.05	1.371
445.25	1.355
445.45	1.370
445.66	1.371
445.86	1.377
446.06	1.379
446.27	1.383
446.47	1.362
446.67	1.374
446.88	1.379
447.08	1.379
447.28	1.381
447.49	1.398
447.69	1.391
447.89	1.400
448.10	1.393
448.30	1.404
448.50	1.370
448.71	1.376
448.91	1.369
449.11	1.362
449.32	1.371
449.52	1.376
449.72	1.388
449.93	1.383
450.13	1.376
450.33	1.376
450.53	1.372
450.74	1.400
450.94	1.390
451.14	1.410
451.35	1.422
451.55	1.395
451.75	1.388
451.96	1.362
452.16	1.371
452.36	1.395
452.57	1.395
452.77	1.386
452.97	1.383
453.17	1.396
453.38	1.391
453.58	1.382
453.78	1.390
453.99	1.393
454.19	1.404
454.39	1.406
454.59	1.391
454.80	1.391
455.00	1.417
455.20	1.407
455.41	1.390
455.61	1.375
455.81	1.388
456.01	1.410
456.22	1.424
456.42	1.424
456.62	1.424
456.83	1.423
457.03	1.427
457.23	1.394
457.43	1.410
457.64	1.440
457.84	1.441
458.04	1.432
458.25	1.418
458.45	1.410
458.65	1.406
458.85	1.402
459.06	1.400
459.26	1.400
459.46	1.414
459.66	1.419
459.87	1.416
460.07	1.419
460.27	1.427
460.47	1.428
460.68	1.427
460.88	1.432
461.08	1.429
461.28	1.438
461.49	1.436
461.69	1.432
461.89	1.430
462.09	1.434
462.30	1.430
462.50	1.429
462.70	1.433
462.90	1.421
463.11	1.432
463.31	1.444
463.51	1.426
463.71	1.424
463.92	1.431
464.12	1.413
464.32	1.414
464.52	1.411
464.72	1.410
464.93	1.412
465.13	1.424
465.33	1.407
465.53	1.388
465.74	1.415
465.94	1.416
466.14	1.418
466.34	1.420
466.54	1.411
466.75	1.420
466.95	1.410
467.15	1.413
467.35	1.415
467.56	1.430
467.76	1.449
467.96	1.447
468.16	1.443
468.36	1.422
468.57	1.447
468.77	1.454
468.97	1.448
469.17	1.452
469.37	1.438
469.58	1.447
469.78	1.428
469.98	1.431
470.18	1.416
470.38	1.422
470.59	1.434
470.79	1.424
470.99	1.416
471.19	1.417
471.39	1.436
471.60	1.430
471.80	1.425
472.00	1.437
472.20	1.440
472.40	1.461
472.61	1.464
472.81	1.471
473.01	1.459
473.21	1.466
473.41	1.469
473.61	1.464
473.82	1.498
474.02	1.487
474.22	1.481
474.42	1.474
474.62	1.470
474.82	1.468
475.03	1.488
475.23	1.493
475.43	1.509
475.63	1.520
475.83	1.510
476.03	1.489
476.24	1.491
476.44	1.512
476.64	1.518
476.84	1.506
477.04	1.508
477.24	1.492
477.45	1.499
477.65	1.495
477.85	1.490
478.05	1.483
478.25	1.477
478.45	1.485
478.65	1.487
478.86	1.480
479.06	1.477
479.26	1.483
479.46	1.492
479.66	1.487
479.86	1.483
480.06	1.482
480.27	1.499
480.47	1.496
480.67	1.494
480.87	1.480
481.07	1.491
481.27	1.507
481.47	1.509
481.68	1.498
481.88	1.502
482.08	1.517
482.28	1.524
482.48	1.521
482.68	1.522
482.88	1.514
483.08	1.523
483.29	1.519
483.49	1.506
483.69	1.496
483.89	1.495
484.09	1.499
484.29	1.493
484.49	1.493
484.69	1.493
484.89	1.500
485.10	1.507
485.30	1.508
485.50	1.515
485.70	1.534
485.90	1.548
486.10	1.560
486.30	1.557
486.50	1.554
486.70	1.545
486.90	1.542
487.11	1.534
487.31	1.531
487.51	1.521
487.71	1.513
487.91	1.516
488.11	1.513
488.31	1.516
488.51	1.517
488.71	1.521
488.91	1.529
489.11	1.529
489.32	1.532
489.52	1.544
489.72	1.556
489.92	1.569
490.12	1.566
490.32	1.576
490.52	1.561
490.72	1.553
490.92	1.546
491.12	1.532
491.32	1.536
491.52	1.531
491.72	1.526
491.92	1.523
492.13	1.525
492.33	1.532
492.53	1.536
492.73	1.543
492.93	1.559
493.13	1.573
493.33	1.596
493.53	1.610
493.73	1.619
493.93	1.620
494.13	1.627
494.33	1.610
494.53	1.600
494.73	1.592
494.93	1.602
495.13	1.592
495.33	1.578
495.53	1.565
495.73	1.559
495.94	1.568
496.14	1.571
496.34	1.557
496.54	1.562
496.74	1.557
496.94	1.565
497.14	1.558
497.34	1.564
497.54	1.568
497.74	1.571
497.94	1.574
498.14	1.565
498.34	1.571
498.54	1.589
498.74	1.583
498.94	1.590
499.14	1.578
499.34	1.581
499.54	1.584
499.74	1.587
499.94	1.588
500.14	1.585
500.34	1.608
500.54	1.614
500.74	1.602
500.94	1.610
501.14	1.609
501.34	1.623
501.54	1.608
501.74	1.587
501.94	1.582
502.14	1.587
502.34	1.584
502.54	1.561
502.74	1.557
502.94	1.549
503.14	1.556
503.34	1.557
503.54	1.556
503.74	1.567
503.94	1.581
504.14	1.588
504.34	1.590
504.54	1.600
504.74	1.603
504.94	1.600
505.14	1.616
505.34	1.623
505.54	1.635
505.74	1.645
505.94	1.652
506.14	1.656
506.34	1.665
506.54	1.671
506.74	1.665
506.94	1.660
507.14	1.660
507.34	1.650
507.54	1.647
507.74	1.634
507.94	1.617
508.14	1.617
508.34	1.606
508.54	1.603
508.74	1.599
508.94	1.602
509.13	1.617
509.33	1.621
509.53	1.634
509.73	1.637
509.93	1.639
510.13	1.647
510.33	1.649
510.53	1.662
510.73	1.672
510.93	1.675
511.13	1.674
511.33	1.662
511.53	1.671
511.73	1.672
511.93	1.671
512.13	1.678
512.33	1.682
512.53	1.679
512.73	1.682
512.92	1.675
513.12	1.676
513.32	1.682
513.52	1.705
513.72	1.707
513.92	1.689
514.12	1.687
514.32	1.686
514.52	1.686
514.72	1.684
514.92	1.673
515.12	1.671
515.32	1.661
515.52	1.653
515.71	1.640
515.91	1.638
516.11	1.654
516.31	1.662
516.51	1.646
516.71	1.652
516.91	1.659
517.11	1.665
517.31	1.656
517.51	1.660
517.71	1.666
517.90	1.665
518.10	1.665
518.30	1.669
518.50	1.657
518.70	1.667
518.90	1.663
519.10	1.662
519.30	1.661
519.50	1.674
519.69	1.682
519.89	1.688
520.09	1.685
520.29	1.687
520.49	1.679
520.69	1.700
520.89	1.710
521.09	1.709
521.29	1.719
521.48	1.730
521.68	1.717
521.88	1.712
522.08	1.708
522.28	1.723
522.48	1.717
522.68	1.720
522.88	1.712
523.07	1.716
523.27	1.728
523.47	1.744
523.67	1.744
523.87	1.753
524.07	1.751
524.27	1.752
524.47	1.748
524.66	1.751
524.86	1.758
525.06	1.755
525.26	1.750
525.46	1.747
525.66	1.732
525.85	1.731
526.05	1.738
526.25	1.741
526.45	1.736
526.65	1.748
526.85	1.759
527.05	1.768
527.24	1.774
527.44	1.765
527.64	1.761
527.84	1.752
528.04	1.743
528.24	1.729
528.43	1.730
528.63	1.735
528.83	1.733
529.03	1.730
529.23	1.726
529.43	1.731
529.62	1.739
529.82	1.740
530.02	1.747
530.22	1.761
530.42	1.774
530.62	1.783
530.81	1.790
531.01	1.788
531.21	1.797
531.41	1.801
531.61	1.792
531.80	1.794
532.00	1.794
532.20	1.796
532.40	1.793
532.60	1.798
532.79	1.791
532.99	1.780
533.19	1.782
533.39	1.776
533.59	1.778
533.78	1.773
533.98	1.773
534.18	1.776
534.38	1.778
534.58	1.786
534.77	1.789
534.97	1.803
535.17	1.822
535.37	1.829
535.57	1.832
535.76	1.833
535.96	1.837
536.16	1.836
536.36	1.840
536.56	1.827
536.75	1.820
536.95	1.828
537.15	1.828
537.35	1.829
537.54	1.840
537.74	1.845
537.94	1.850
538.14	1.859
538.34	1.859
538.53	1.866
538.73	1.884
538.93	1.888
539.13	1.886
539.32	1.885
539.52	1.876
539.72	1.861
539.92	1.857
540.11	1.838
540.31	1.826
540.51	1.813
540.71	1.803
540.90	1.794
541.10	1.798
541.30	1.795
541.50	1.794
541.69	1.797
541.89	1.799
542.09	1.801
542.29	1.811
542.48	1.820
542.68	1.832
542.88	1.836
543.08	1.851
543.27	1.853
543.47	1.858
543.67	1.865
543.87	1.868
544.06	1.865
544.26	1.870
544.46	1.864
544.65	1.865
544.85	1.876
545.05	1.879
545.25	1.879
545.44	1.874
545.64	1.879
545.84	1.877
546.04	1.870
546.23	1.868
546.43	1.862
546.63	1.866
546.82	1.858
547.02	1.856
547.22	1.864
547.42	1.860
547.61	1.875
547.81	1.875
548.01	1.872
548.20	1.879
548.40	1.893
548.60	1.902
548.79	1.897
548.99	1.910
549.19	1.902
549.39	1.889
549.58	1.899
549.78	1.887
549.98	1.891
550.17	1.898
550.37	1.893
550.57	1.885
550.76	1.869
550.96	1.890
551.16	1.893
551.35	1.882
551.55	1.884
551.75	1.876
551.94	1.866
552.14	1.856
552.34	1.850
552.53	1.859
552.73	1.867
552.93	1.884
553.13	1.878
553.32	1.867
553.52	1.885
553.72	1.895
553.91	1.906
554.11	1.924
554.31	1.932
554.50	1.940
554.70	1.934
554.89	1.949
555.09	1.947
555.29	1.945
555.48	1.949
555.68	1.961
555.88	1.963
556.07	1.952
556.27	1.951
556.47	1.945
556.66	1.946
556.86	1.953
557.06	1.944
557.25	1.942
557.45	1.946
557.65	1.957
557.84	1.940
558.04	1.932
558.23	1.933
558.43	1.934
558.63	1.942
558.82	1.939
559.02	1.926
559.22	1.919
559.41	1.923
559.61	1.923
559.81	1.915
560.00	1.933
560.20	1.938
560.39	1.950
560.59	1.950
560.79	1.949
560.98	1.955
561.18	1.971
561.37	1.978
561.57	1.973
561.77	1.971
561.96	1.977
562.16	1.966
562.36	1.967
562.55	1.969
562.75	1.977
562.94	1.980
563.14	1.972
563.34	1.966
563.53	1.963
563.73	1.974
563.92	2.004
564.12	1.994
564.32	1.995
564.51	1.999
564.71	2.007
564.90	2.003
565.10	1.998
565.29	2.004
565.49	1.998
565.69	2.000
565.88	1.983
566.08	1.969
566.27	1.981
566.47	1.978
566.67	1.982
566.86	1.985
567.06	1.987
567.25	2.004
567.45	2.013
567.64	2.031
567.84	2.031
568.04	2.045
568.23	2.051
568.43	2.062
568.62	2.066
568.82	2.060
569.01	2.055
569.21	2.045
569.41	2.046
569.60	2.049
569.80	2.050
569.99	2.056
570.19	2.056
570.38	2.049
570.58	2.053
570.77	2.059
570.97	2.067
571.17	2.068
571.36	2.084
571.56	2.085
571.75	2.068
571.95	2.065
572.14	2.069
572.34	2.080
572.53	2.096
572.73	2.087
572.92	2.084
573.12	2.082
573.31	2.085
573.51	2.084
573.70	2.080
573.90	2.091
574.10	2.090
574.29	2.102
574.49	2.102
574.68	2.093
574.88	2.095
575.07	2.099
575.27	2.097
575.46	2.094
575.66	2.096
575.85	2.091
576.05	2.096
576.24	2.097
576.44	2.077
576.63	2.078
576.83	2.079
577.02	2.091
577.22	2.088
577.41	2.101
577.61	2.098
577.80	2.103
578.00	2.099
578.19	2.104
578.39	2.111
578.58	2.105
578.78	2.106
578.97	2.116
579.17	2.108
579.36	2.102
579.56	2.097
579.75	2.099
579.95	2.102
580.14	2.112
580.34	2.114
580.53	2.115
580.73	2.133
580.92	2.126
581.12	2.117
581.31	2.108
581.51	2.111
581.70	2.114
581.89	2.116
582.09	2.119
582.28	2.118
582.48	2.117
582.67	2.120
582.87	2.132
583.06	2.134
583.26	2.131
583.45	2.153
583.65	2.163
583.84	2.165
584.04	2.160
584.23	2.145
584.43	2.144
584.62	2.139
584.81	2.132
585.01	2.110
585.20	2.118
585.40	2.138
585.59	2.126
585.79	2.135
585.98	2.134
586.18	2.141
586.37	2.146
586.56	2.152
586.76	2.146
586.95	2.159
587.15	2.170
587.34	2.169
587.54	2.161
587.73	2.172
587.92	2.164
588.12	2.180
588.31	2.200
588.51	2.197
588.70	2.208
588.90	2.211
589.09	2.210
589.28	2.206
589.48	2.196
589.67	2.194
589.87	2.189
590.06	2.194
590.25	2.186
590.45	2.178
590.64	2.187
590.84	2.189
591.03	2.195
591.23	2.205
591.42	2.208
591.61	2.222
591.81	2.231
592.00	2.230
592.20	2.228
592.39	2.216
592.58	2.216
592.78	2.211
592.97	2.210
593.17	2.212
593.36	2.199
593.55	2.209
593.75	2.213
593.94	2.200
594.13	2.214
594.33	2.218
594.52	2.234
594.72	2.235
594.91	2.256
595.10	2.260
595.30	2.262
595.49	2.264
595.68	2.266
595.88	2.269
596.07	2.267
596.27	2.264
596.46	2.260
596.65	2.258
596.85	2.261
597.04	2.261
597.23	2.270
597.43	2.282
597.62	2.294
597.81	2.285
598.01	2.288
598.20	2.306
598.40	2.314
598.59	2.324
598.78	2.341
598.98	2.357
599.17	2.345
599.36	2.325
599.56	2.335
599.75	2.322
599.94	2.343
600.14	2.336
600.33	2.351
600.52	2.347
600.72	2.370
600.91	2.357
601.10	2.347
601.30	2.340
601.49	2.344
601.68	2.343
601.88	2.359
602.07	2.349
602.26	2.345
602.46	2.330
602.65	2.339
602.84	2.360
603.04	2.366
603.23	2.359
603.42	2.376
603.62	2.400
603.81	2.404
604.00	2.409
604.20	2.394
604.39	2.402
604.58	2.407
604.77	2.399
604.97	2.382
605.16	2.381
605.35	2.392
605.55	2.396
605.74	2.388
605.93	2.390
606.13	2.399
606.32	2.414
606.51	2.435
606.70	2.438
606.90	2.446
607.09	2.444
607.28	2.469
607.48	2.470
607.67	2.465
607.86	2.457
608.05	2.451
608.25	2.434
608.44	2.447
608.63	2.432
608.83	2.443
609.02	2.438
609.21	2.441
609.40	2.421
609.60	2.434
609.79	2.435
609.98	2.439
610.17	2.449
610.37	2.450
610.56	2.454
610.75	2.468
610.95	2.457
611.14	2.460
611.33	2.464
611.52	2.480
611.72	2.466
611.91	2.486
612.10	2.491
612.29	2.488
612.49	2.494
612.68	2.483
612.87	2.489
613.06	2.491
613.26	2.512
613.45	2.510
613.64	2.518
613.83	2.520
614.03	2.503
614.22	2.503
614.41	2.488
614.60	2.494
614.79	2.512
614.99	2.505
615.18	2.501
615.37	2.492
615.56	2.490
615.76	2.503
615.95	2.504
616.14	2.502
616.33	2.512
616.53	2.539
616.72	2.540
616.91	2.544
617.10	2.539
617.29	2.534
617.49	2.538
617.68	2.543
617.87	2.512
618.06	2.534
618.25	2.558
618.45	2.564
618.64	2.557
618.83	2.568
619.02	2.575
619.21	2.585
619.41	2.600
619.60	2.604
619.79	2.601
619.98	2.624
620.17	2.612
620.37	2.607
620.56	2.609
620.75	2.618
620.94	2.616
621.13	2.598
621.33	2.582
621.52	2.582
621.71	2.585
621.90	2.592
622.09	2.575
622.28	2.589
622.48	2.573
622.67	2.579
622.86	2.563
623.05	2.564
623.24	2.567
623.44	2.592
623.63	2.594
623.82	2.606
624.01	2.610
624.20	2.612
624.39	2.597
624.59	2.625
624.78	2.630
624.97	2.634
625.16	2.627
625.35	2.645
625.54	2.627
625.73	2.632
625.93	2.626
626.12	2.641
626.31	2.657
626.50	2.662
626.69	2.647
626.88	2.650
627.07	2.669
627.27	2.681
627.46	2.682
627.65	2.723
627.84	2.727
628.03	2.731
628.22	2.715
628.41	2.711
628.61	2.728
628.80	2.727
628.99	2.705
629.18	2.705
629.37	2.712
629.56	2.716
629.75	2.686
629.94	2.693
630.14	2.691
630.33	2.714
630.52	2.720
630.71	2.721
630.90	2.736
631.09	2.751
631.28	2.743
631.47	2.741
631.66	2.729
631.86	2.729
632.05	2.720
632.24	2.726
632.43	2.717
632.62	2.717
632.81	2.699
633.00	2.713
633.19	2.714
633.38	2.733
633.57	2.727
633.77	2.727
633.96	2.757
634.15	2.772
634.34	2.772
634.53	2.780
634.72	2.756
634.91	2.753
635.10	2.749
635.29	2.753
635.48	2.762
635.67	2.782
635.86	2.793
636.05	2.794
636.25	2.805
636.44	2.817
636.63	2.843
636.82	2.887
637.01	2.917
637.20	2.924
637.39	2.913
637.58	2.899
637.77	2.889
637.96	2.924
638.15	2.924
638.34	2.940
638.53	2.948
638.72	2.905
638.91	2.902
639.10	2.913
639.30	2.906
639.49	2.943
639.68	2.943
639.87	2.953
640.06	2.928
640.25	2.941
640.44	2.896
640.63	2.874
640.82	2.899
641.01	2.921
641.20	2.887
641.39	2.894
641.58	2.904
641.77	2.911
641.96	2.916
642.15	2.903
642.34	2.891
642.53	2.925
642.72	2.942
642.91	2.932
643.10	2.922
643.29	2.965
643.48	2.965
643.67	2.931
643.86	2.929
644.05	2.945
644.24	2.956
644.43	2.969
644.62	2.990
644.81	2.973
645.00	2.976
645.19	2.976
645.38	2.961
645.57	2.959
645.76	2.969
645.95	2.988
646.14	2.979
646.33	2.987
646.52	2.980
646.71	2.968
646.90	2.999
647.09	3.012
647.28	2.998
647.47	2.979
647.66	2.991
647.85	3.031
648.04	3.018
648.23	3.041
648.42	3.046
648.61	3.026
648.80	3.019
648.99	2.998
649.18	3.011
649.37	3.045
649.56	3.093
649.75	3.081
649.94	3.061
650.13	3.072
650.32	3.058
650.51	3.048
650.70	3.081
650.89	3.094
651.08	3.089
651.27	3.096
651.46	3.096
651.65	3.068
651.83	3.093
652.02	3.084
652.21	3.076
652.40	3.074
652.59	3.121
652.78	3.119
652.97	3.110
653.16	3.145
653.35	3.139
653.54	3.125
653.73	3.161
653.92	3.141
654.11	3.170
654.30	3.192
654.49	3.221
654.68	3.190
654.86	3.224
655.05	3.226
655.24	3.202
655.43	3.175
655.62	3.180
655.81	3.150
656.00	3.189
656.19	3.173
656.38	3.174
656.57	3.159
656.76	3.162
656.95	3.150
657.13	3.167
657.32	3.205
657.51	3.234
657.70	3.266
657.89	3.272
658.08	3.265
658.27	3.270
658.46	3.255
658.65	3.253
658.84	3.246
659.02	3.253
659.21	3.278
659.40	3.296
659.59	3.317
659.78	3.311
659.97	3.333
660.16	3.331
660.35	3.324
660.54	3.335
660.72	3.355
660.91	3.365
661.10	3.344
661.29	3.333
661.48	3.296
661.67	3.299
661.86	3.291
662.05	3.264
662.23	3.263
662.42	3.284
662.61	3.293
662.80	3.265
662.99	3.310
663.18	3.332
663.37	3.313
663.56	3.298
663.74	3.257
663.93	3.261
664.12	3.285
664.31	3.266
664.50	3.280
664.69	3.302
664.87	3.345
665.06	3.327
665.25	3.328
665.44	3.324
665.63	3.359
665.82	3.364
666.01	3.377
666.19	3.377
666.38	3.407
666.57	3.401
666.76	3.389
666.95	3.363
667.14	3.360
667.32	3.361
667.51	3.397
667.70	3.376
667.89	3.388
668.08	3.377
668.26	3.374
668.45	3.372
668.64	3.369
668.83	3.388
669.02	3.413
669.21	3.416
669.39	3.421
669.58	3.418
669.77	3.438
669.96	3.467
670.15	3.483
670.33	3.485
670.52	3.469
670.71	3.486
670.90	3.473
671.09	3.469
671.27	3.475
671.46	3.463
671.65	3.471
671.84	3.488
672.03	3.504
672.21	3.539
672.40	3.568
672.59	3.568
672.78	3.579
672.96	3.571
673.15	3.572
673.34	3.578
673.53	3.584
673.72	3.581
673.90	3.582
674.09	3.581
674.28	3.565
674.47	3.582
674.65	3.631
674.84	3.605
675.03	3.632
675.22	3.628
675.41	3.635
675.59	3.617
675.78	3.618
675.97	3.634
676.16	3.638
676.34	3.634
676.53	3.640
676.72	3.616
676.91	3.642
677.09	3.646
677.28	3.680
677.47	3.696
677.66	3.751
677.84	3.756
678.03	3.770
678.22	3.757
678.41	3.759
678.59	3.747
678.78	3.769
678.97	3.769
679.15	3.805
679.34	3.798
679.53	3.788
679.72	3.783
679.90	3.780
680.09	3.768
680.28	3.784
680.47	3.764
680.65	3.740
680.84	3.733
681.03	3.757
681.21	3.726
681.40	3.697
681.59	3.727
681.78	3.729
681.96	3.752
682.15	3.764
682.34	3.755
682.52	3.751
682.71	3.766
682.90	3.783
683.08	3.790
683.27	3.813
683.46	3.817
683.65	3.820
683.83	3.805
684.02	3.811
684.21	3.802
684.39	3.819
684.58	3.857
684.77	3.880
684.95	3.857
685.14	3.828
685.33	3.809
685.51	3.848
685.70	3.820
685.89	3.833
686.07	3.845
686.26	3.870
686.45	3.892
686.63	3.892
686.82	3.901
687.01	3.906
687.20	3.923
687.38	3.929
687.57	3.924
687.75	3.949
687.94	3.963
688.13	3.984
688.31	3.968
688.50	3.969
688.69	3.969
688.87	3.986
689.06	4.000
689.25	3.996
689.43	4.009
689.62	4.022
689.81	4.035
689.99	4.052
690.18	4.036
690.37	4.032
690.55	4.032
690.74	4.049
690.93	4.041
691.11	4.064
691.30	4.072
691.48	4.101
691.67	4.096
691.86	4.076
692.04	4.048
692.23	4.034
692.42	4.088
692.60	4.095
692.79	4.099
692.97	4.101
693.16	4.119
693.35	4.141
693.53	4.111
693.72	4.122
693.90	4.125
694.09	4.159
694.28	4.226
694.46	4.227
694.65	4.208
694.83	4.244
695.02	4.225
695.21	4.255
695.39	4.239
695.58	4.287
695.76	4.309
695.95	4.333
696.14	4.316
696.32	4.275
696.51	4.240
696.69	4.277
696.88	4.316
697.07	4.349
697.25	4.337
697.44	4.336
697.62	4.333
697.81	4.309
697.99	4.329
698.18	4.328
698.37	4.324
698.55	4.349
698.74	4.324
698.92	4.280
699.11	4.283
699.29	4.284
699.48	4.293
699.67	4.282
699.85	4.299
700.04	4.274
700.22	4.313
700.41	4.348
700.59	4.348
700.78	4.373
700.96	4.377
701.15	4.395
701.34	4.365
701.52	4.381
701.71	4.400
701.89	4.441
702.08	4.444
702.26	4.460
702.45	4.461
702.63	4.452
702.82	4.437
703.00	4.482
703.19	4.479
703.38	4.541
703.56	4.556
703.75	4.584
703.93	4.523
704.12	4.597
704.30	4.560
704.49	4.555
704.67	4.579
704.86	4.611
705.04	4.623
705.23	4.638
705.41	4.597
705.60	4.614
705.78	4.578
705.97	4.605
706.15	4.544
706.34	4.589
706.52	4.573
706.71	4.580
706.89	4.591
707.08	4.558
707.26	4.550
707.45	4.594
707.63	4.571
707.82	4.578
708.00	4.584
708.19	4.601
708.37	4.576
708.56	4.595
708.74	4.592
708.93	4.594
709.11	4.592
709.30	4.593
709.48	4.579
709.67	4.592
709.85	4.597
710.04	4.657
710.22	4.683
710.41	4.695
710.59	4.678
710.77	4.675
710.96	4.695
711.14	4.688
711.33	4.696
711.51	4.720
711.70	4.710
711.88	4.725
712.07	4.677
712.25	4.687
712.44	4.682
712.62	4.710
712.80	4.738
712.99	4.730
713.17	4.762
713.36	4.767
713.54	4.808
713.73	4.804
713.91	4.793
714.10	4.763
714.28	4.740
714.46	4.767
714.65	4.753
714.83	4.779
715.02	4.802
715.20	4.824
715.39	4.838
715.57	4.827
715.75	4.862
715.94	4.862
716.12	4.929
716.31	4.945
716.49	4.900
716.68	4.882
716.86	4.874
717.04	4.854
717.23	4.920
717.41	4.939
717.60	4.919
717.78	4.942
717.96	4.957
718.15	4.948
718.33	4.931
718.52	4.994
718.70	5.046
718.88	5.022
719.07	5.028
719.25	4.925
719.44	4.893
719.62	4.929
719.80	4.913
719.99	4.930
720.17	4.937
720.36	4.957
720.54	4.950
720.72	5.015
720.91	5.051
721.09	5.034
721.27	5.051
721.46	5.080
721.64	5.028
721.83	5.014
722.01	5.008
722.19	4.994
722.38	5.007
722.56	5.011
722.74	4.968
722.93	4.947
723.11	4.970
723.30	4.995
723.48	5.021
723.66	5.029
723.85	5.106
724.03	5.140
724.21	5.201
724.40	5.200
724.58	5.207
724.76	5.202
724.95	5.181
725.13	5.226
725.31	5.242
725.50	5.248
725.68	5.293
725.86	5.293
726.05	5.317
726.23	5.300
726.41	5.349
726.60	5.348
726.78	5.343
726.96	5.416
727.15	5.408
727.33	5.437
727.51	5.473
727.70	5.460
727.88	5.440
728.06	5.429
728.25	5.436
728.43	5.399
728.61	5.423
728.80	5.443
728.98	5.479
729.16	5.499
729.34	5.475
729.53	5.425
729.71	5.427
729.89	5.429
730.08	5.411
730.26	5.423
730.44	5.433
730.63	5.497
730.81	5.495
730.99	5.483
731.17	5.502
731.36	5.544
731.54	5.555
731.72	5.594
731.91	5.599
732.09	5.642
732.27	5.672
732.45	5.718
732.64	5.668
732.82	5.678
733.00	5.653
733.19	5.622
733.37	5.632
733.55	5.642
733.73	5.626
733.92	5.664
734.10	5.670
734.28	5.636
734.46	5.575
734.65	5.572
734.83	5.584
735.01	5.571
735.19	5.568
735.38	5.533
735.56	5.542
735.74	5.564
735.92	5.537
736.11	5.528
736.29	5.576
736.47	5.617
736.65	5.624
736.84	5.652
737.02	5.669
737.20	5.732
737.38	5.766
737.57	5.783
737.75	5.799
737.93	5.822
738.11	5.825
738.30	5.802
738.48	5.814
738.66	5.836
738.84	5.836
739.02	5.840
739.21	5.802
739.39	5.771
739.57	5.777
739.75	5.754
739.93	5.768
740.12	5.781
740.30	5.799
740.48	5.832
740.66	5.833
740.85	5.825
741.03	5.838
741.21	5.841
741.39	5.890
741.57	5.883
741.76	5.873
741.94	5.844
742.12	5.841
742.30	5.843
742.48	5.807
742.66	5.811
742.85	5.815
743.03	5.865
743.21	5.865
743.39	5.854
743.57	5.862
743.76	5.890
743.94	5.933
744.12	5.930
744.30	5.953
744.48	6.017
744.66	6.045
744.85	6.047
745.03	6.038
745.21	6.113
745.39	6.166
745.57	6.217
745.75	6.259
745.94	6.277
746.12	6.313
746.30	6.324
746.48	6.350
746.66	6.326
746.84	6.304
747.02	6.260
747.21	6.215
747.39	6.163
747.57	6.184
747.75	6.161
747.93	6.119
748.11	6.123
748.29	6.139
748.48	6.071
748.66	6.113
748.84	6.192
749.02	6.264
749.20	6.311
749.38	6.333
749.56	6.327
749.75	6.397
749.93	6.464
750.11	6.499
750.29	6.455
750.47	6.523
750.65	6.486
750.83	6.494
751.01	6.500
751.19	6.500
751.38	6.552
751.56	6.538
751.74	6.463
751.92	6.480
752.10	6.486
752.28	6.533
752.46	6.484
752.64	6.549
752.82	6.505
753.00	6.513
753.19	6.486
753.37	6.435
753.55	6.413
753.73	6.460
753.91	6.462
754.09	6.399
754.27	6.379
754.45	6.432
754.63	6.437
754.81	6.411
754.99	6.416
755.17	6.550
755.36	6.612
755.54	6.666
755.72	6.719
755.90	6.713
756.08	6.783
756.26	6.837
756.44	6.835
756.62	6.835
756.80	6.973
756.98	6.976
757.16	6.860
757.34	6.884
757.52	6.913
757.70	6.879
757.88	6.876
758.06	6.811
758.24	6.778
758.42	6.771
758.61	6.798
758.79	6.706
758.97	6.713
759.15	6.704
759.33	6.661
759.51	6.666
759.69	6.667
759.87	6.668
760.05	6.726
760.23	6.742
760.41	6.775
760.59	6.734
760.77	6.818
760.95	6.819
761.13	6.899
761.31	6.926
761.49	6.939
761.67	6.975
761.85	6.985
762.03	6.992
762.21	7.008
762.39	6.964
762.57	6.986
762.75	6.963
762.93	6.953
763.11	6.893
763.29	6.891
763.47	6.874
763.65	6.871
763.83	6.856
764.01	6.858
764.19	6.850
764.37	6.915
764.55	6.902
764.73	6.905
764.91	6.909
765.09	6.953
765.27	6.932
765.45	6.943
765.63	6.956
765.81	6.988
765.99	7.028
766.17	7.055
766.35	7.022
766.53	7.079
766.71	7.074
766.89	7.135
767.07	7.138
767.25	7.225
767.43	7.197
767.61	7.257
767.78	7.281
767.96	7.292
768.14	7.284
768.32	7.313
768.50	7.344
768.68	7.322
768.86	7.312
769.04	7.272
769.22	7.236
769.40	7.324
769.58	7.303
769.76	7.310
769.94	7.347
770.12	7.331
770.30	7.308
770.48	7.223
770.66	7.324
770.84	7.315
771.01	7.373
771.19	7.352
771.37	7.391
771.55	7.372
771.73	7.334
771.91	7.273
772.09	7.321
772.27	7.396
772.45	7.478
772.63	7.424
772.81	7.422
772.99	7.395
773.16	7.410
773.34	7.460
773.52	7.466
773.70	7.543
773.88	7.644
774.06	7.676
774.24	7.660
774.42	7.669
774.60	7.731
774.78	7.703
774.95	7.777
775.13	7.848
775.31	7.673
775.49	7.710
775.67	7.660
775.85	7.512
776.03	7.530
776.21	7.514
776.38	7.467
776.56	7.564
776.74	7.602
776.92	7.587
777.10	7.559
777.28	7.666
777.46	7.633
777.64	7.745
777.81	7.863
777.99	7.863
778.17	7.876
778.35	7.999
778.53	7.970
778.71	8.142
778.89	8.139
779.06	8.211
779.24	8.241
779.42	8.247
779.60	8.235
779.78	8.251
779.96	8.269
780.13	8.282
780.31	8.237
780.49	8.219
780.67	8.065
780.85	8.085
781.03	8.025
781.20	7.974
781.38	8.000
781.56	7.905
781.74	7.909
781.92	7.852
782.10	7.803
782.27	7.731
782.45	7.677
782.63	7.680
782.81	7.732
782.99	7.852
783.17	7.973
783.34	8.012
783.52	8.063
783.70	8.027
783.88	8.111
784.06	8.210
784.23	8.200
784.41	8.323
784.59	8.402
784.77	8.422
784.95	8.500
785.12	8.371
785.30	8.383
785.48	8.437
785.66	8.515
785.83	8.465
786.01	8.517
786.19	8.687
786.37	8.575
786.55	8.620
786.72	8.563
786.90	8.512
787.08	8.631
787.26	8.618
787.43	8.557
787.61	8.490
787.79	8.543
787.97	8.486
788.15	8.485
788.32	8.498
788.50	8.496
788.68	8.514
788.86	8.470
789.03	8.443
789.21	8.385
789.39	8.450
789.57	8.493
789.74	8.550
789.92	8.552
790.10	8.491
790.28	8.548
790.45	8.640
790.63	8.668
790.81	8.692
790.99	8.641
791.16	8.708
791.34	8.705
791.52	8.658
791.69	8.620
791.87	8.619
792.05	8.693
792.23	8.676
792.40	8.553
792.58	8.544
792.76	8.471
792.94	8.563
793.11	8.640
793.29	8.617
793.47	8.691
793.64	8.703
793.82	8.800
794.00	8.786
794.18	8.739
794.35	8.849
794.53	8.858
794.71	8.939
794.88	8.993
795.06	8.964
795.24	8.985
795.41	8.975
795.59	9.112
795.77	9.049
795.94	9.056
796.12	9.183
796.30	9.165
796.48	9.131
796.65	9.106
796.83	9.032
797.01	9.009
797.18	9.001
797.36	9.013
797.54	8.978
797.71	9.052
797.89	9.075
798.07	8.993
798.24	8.980
798.42	8.980
798.60	9.080
798.77	9.180
798.95	9.152
799.13	9.121
799.30	9.154
799.48	9.143
799.66	9.127
799.83	9.126
800.01	9.166
800.18	9.067
800.36	9.215
800.54	9.128
800.71	8.963
800.89	9.125
801.07	9.174
801.24	9.271
801.42	9.336
801.60	9.436
801.77	9.511
801.95	9.500
802.12	9.593
802.30	9.554
802.48	9.561
802.65	9.759
802.83	9.727
803.01	9.926
803.18	9.931
803.36	9.832
803.53	9.704
803.71	9.611
803.89	9.684
804.06	9.746
804.24	9.740
804.41	9.907
804.59	9.859
804.77	10.086
804.94	10.005
805.12	9.960
805.29	9.952
805.47	9.905
805.65	9.961
805.82	9.974
806.00	9.958
806.17	9.904
806.35	9.742
806.53	9.772
806.70	9.514
806.88	9.443
807.05	9.534
807.23	9.613
807.40	9.676
807.58	9.659
807.76	9.778
807.93	9.702
808.11	9.784
808.28	9.941
808.46	9.973
808.63	10.044
808.81	10.113
808.99	10.021
809.16	9.983
809.34	10.059
809.51	9.975
809.69	9.942
809.86	9.968
810.04	9.956
810.21	9.772
810.39	9.778
810.57	9.705
810.74	9.621
810.92	9.654
811.09	9.670
811.27	9.670
811.44	9.792
811.62	9.717
811.79	9.766
811.97	9.697
812.14	9.771
812.32	9.804
812.49	9.848
812.67	10.002
812.84	9.900
813.02	9.958
813.19	9.968
813.37	9.794
813.55	9.664
813.72	9.721
813.90	9.907
814.07	9.826
814.25	9.809
814.42	9.963
814.60	9.921
814.77	10.030
814.95	10.054
815.12	10.069
815.30	10.248
815.47	10.440
815.65	10.459
815.82	10.529
816.00	10.762
816.17	10.780
816.35	10.685
816.52	10.779
816.69	10.902
816.87	10.869
817.04	10.849
817.22	10.853
817.39	10.879
817.57	10.849
817.74	10.878
817.92	10.834
818.09	10.720
818.27	10.728
818.44	10.617
818.62	10.484
818.79	10.387
818.97	10.511
819.14	10.497
819.32	10.368
819.49	10.520
819.66	10.420
819.84	10.419
820.01	10.480
820.19	10.414
820.36	10.451
820.54	10.524
820.71	10.649
820.89	10.593
821.06	10.703
821.23	10.787
821.41	10.690
821.58	10.651
821.76	10.534
821.93	10.461
822.11	10.394
822.28	10.326
822.45	10.287
822.63	10.258
822.80	10.251
822.98	10.233
823.15	10.221
823.33	10.224
823.50	10.240
823.67	10.281
823.85	10.330
824.02	10.407
824.20	10.503
824.37	10.591
824.54	10.685
824.72	10.783
824.89	10.856
825.07	10.916
825.24	11.000
825.41	11.048
825.59	11.115
825.76	11.161
825.94	11.233
826.11	11.269
826.28	11.331
826.46	11.318
826.63	11.270
826.80	11.250
826.98	11.212
827.15	11.179
827.33	11.167
827.50	11.118
827.67	11.104
827.85	11.079
828.02	11.072
828.19	11.047
828.37	11.059
828.54	11.099
828.72	11.160
828.89	11.215
829.06	11.256
829.24	11.318
829.41	11.453
829.58	11.533
829.76	11.587
829.93	11.633
830.10	11.641
830.28	11.733
830.45	11.794
830.62	11.793
830.80	11.912
830.97	11.868
831.14	11.791
831.32	11.691
831.49	11.574
831.66	11.534
831.84	11.521
832.01	11.569
832.18	11.549
832.36	11.431
832.53	11.492
832.70	11.460
832.88	11.610
833.05	11.702
833.22	11.697
833.40	11.766
833.57	11.723
833.74	11.685
833.91	11.620
834.09	11.595
834.26	11.613
834.43	11.591
834.61	11.601
834.78	11.546
834.95	11.536
835.13	11.523
835.30	11.470
835.47	11.486
835.64	11.522
835.82	11.600
835.99	11.614
836.16	11.693
836.34	11.782
836.51	11.836
836.68	12.014
836.85	12.040
837.03	12.200
837.20	12.391
837.37	12.406
837.54	12.545
837.72	12.530
837.89	12.469
838.06	12.471
838.24	12.384
838.41	12.428
838.58	12.345
838.75	12.351
838.93	12.293
839.10	12.256
839.27	12.461
839.44	12.352
839.62	12.548
839.79	12.759
839.96	12.697
840.13	12.831
840.31	12.734
840.48	12.589
840.65	12.596
840.82	12.644
840.99	12.688
841.17	12.679
841.34	12.883
841.51	12.831
841.68	12.846
841.86	13.008
842.03	13.148
842.20	13.287
842.37	13.371
842.55	13.455
842.72	13.343
842.89	13.336
843.06	13.399
843.23	13.090
843.41	13.164
843.58	13.297
843.75	13.402
843.92	13.380
844.09	13.373
844.27	13.323
844.44	13.226
844.61	13.092
844.78	13.113
844.95	12.904
845.13	13.009
845.30	12.884
845.47	12.601
845.64	12.707
845.81	12.292
845.98	12.202
846.16	12.368
846.33	12.554
846.50	13.332
846.67	13.378
846.84	13.573
847.02	13.754
847.19	13.736
847.36	13.834
847.53	13.278
847.70	13.156
847.87	13.453
848.04	13.626
848.22	13.444
848.39	12.942
848.56	13.094
848.73	12.696
848.90	12.502
849.07	12.527
849.25	12.219
849.42	12.610
849.59	12.772
849.76	12.797
849.93	12.861
850.10	13.025
850.27	13.345
850.45	13.351
850.62	13.809
850.79	14.039
850.96	13.971
851.13	14.143
851.30	13.334
851.47	13.166
851.64	12.869
851.82	12.738
851.99	12.955
852.16	12.923
852.33	12.880
852.50	12.897
852.67	12.652
852.84	12.851
853.01	12.658
853.18	13.515
853.35	13.652
853.53	13.786
853.70	13.688
853.87	13.589
854.04	13.310
854.21	13.250
854.38	12.989
854.55	12.992
854.72	12.595
854.89	13.052
855.06	12.936
855.23	12.964
855.41	12.960
855.58	13.076
855.75	13.261
855.92	13.208
856.09	13.365
856.26	13.735
856.43	13.977
856.60	14.203
856.77	14.060
856.94	13.747
857.11	13.717
857.28	13.593
857.45	13.598
857.62	13.585
857.80	13.479
857.97	12.948
858.14	12.872
858.31	12.970
858.48	13.291
858.65	13.329
858.82	13.832
858.99	13.531
859.16	13.741
859.33	14.150
859.50	13.930
859.67	14.555
859.84	14.590
860.01	14.881
860.18	14.715
860.35	14.824
860.52	14.847
860.69	14.596
860.86	15.277
861.03	15.070
861.20	14.399
861.37	14.536
861.54	14.200
861.71	14.076
861.88	13.894
862.05	14.250
862.22	14.092
862.39	14.107
862.56	14.021
862.73	13.732
862.90	13.910
863.07	14.097
863.24	13.899
863.41	13.627
863.58	14.377
863.75	14.245
863.92	13.908
864.09	13.845
864.26	13.734
864.43	13.731
864.60	14.092
864.77	14.211
864.94	14.578
865.11	14.960
865.28	15.332
865.45	15.200
865.62	15.164
865.79	15.296
865.96	15.014
866.13	15.110
866.30	15.544
866.47	15.317
866.64	15.086
866.81	14.984
866.98	15.202
867.15	14.923
867.32	14.510
867.49	14.558
867.66	14.735
867.82	15.126
867.99	15.053
868.16	15.000
868.33	15.010
868.50	14.853
868.67	15.026
868.84	15.020
869.01	15.279
869.18	15.740
869.35	16.166
869.52	15.981
869.69	16.197
869.86	16.797
870.03	16.557
870.19	16.517
870.36	16.977
870.53	16.560
870.70	16.213
870.87	16.667
871.04	16.236
871.21	15.754
871.38	16.055
871.55	15.663
871.72	15.322
871.89	15.460
872.05	15.265
872.22	14.664
872.39	14.841
872.56	15.248
872.73	14.602
872.90	15.075
873.07	15.133
873.24	15.132
873.41	15.247
873.57	15.063
873.74	14.884
873.91	14.992
874.08	15.331
874.25	15.558
874.42	15.215
874.59	15.780
874.76	15.599
874.92	15.766
875.09	15.599
875.26	15.538
875.43	15.918
875.60	16.031
875.77	16.174
875.94	16.301
876.11	16.119
876.27	16.016
876.44	16.088
876.61	16.480
876.78	16.571
876.95	16.166
877.12	16.359
877.28	16.185
877.45	16.362
877.62	16.598
877.79	16.659
877.96	16.930
878.13	16.980
878.29	16.800
878.46	16.525
878.63	16.424
878.80	16.477
878.97	16.590
879.14	16.564
879.30	16.630
879.47	16.437
879.64	16.375
879.81	16.162
879.98	16.205
880.14	16.080
880.31	16.045
880.48	16.129
880.65	16.401
880.82	16.314
880.98	16.242
881.15	16.015
881.32	15.853
881.49	15.737
881.66	15.647
881.82	15.538
881.99	15.484
882.16	15.446
882.33	15.394
882.50	15.341
882.66	15.335
882.83	15.312
883.00	15.347
883.17	15.400
883.33	15.453
883.50	15.574
883.67	15.684
883.84	15.806
884.01	15.906
884.17	15.986
884.34	16.047
884.51	16.125
884.68	16.236
884.84	16.269
885.01	16.353
885.18	16.417
885.35	16.339
885.51	16.357
885.68	16.347
885.85	16.488
886.02	16.577
886.18	16.695
886.35	16.602
886.52	16.599
886.69	16.636
886.85	16.839
887.02	16.833
887.19	16.990
887.35	17.181
887.52	17.193
887.69	17.110
887.86	17.350
888.02	17.266
888.19	17.418
888.36	16.598
888.53	18.915
888.69	19.928
888.86	16.865
889.03	17.160
>>>>>End Spectral Data<<<<<
