OOIBase32 Version 2.0.6.5 Data File
++++++++++++++++++++++++++++++++++++
Date: 03-24-2011, 10:55:12
User: Valued Ocean Optics Customer
Spectrometer Serial Number: USB4C01507
Spectrometer Channel: Master
Integration Time (msec): 46
Spectra Averaged: 30
Boxcar Smoothing: 5
Correct for Electrical Dark: Enabled
Time Normalized: Disabled
Dual-beam Reference: Disabled
Reference Channel: Master
Temperature: Not acquired
Spectrometer Type: S4000
ADC Type: USB4000
Number of Pixels in File: 3648
Graph Title: 
>>>>>Begin Spectral Data<<<<<
179.17	1227.877
179.39	2475.410
179.60	-96.703
179.82	131.601
180.03	429.989
180.24	-209.806
180.46	66.740
180.67	-349.694
180.89	151.278
181.10	-65.970
181.31	120.841
181.53	-93.291
181.74	9.044
181.96	-41.444
182.17	118.812
182.39	6.926
182.60	56.254
182.81	37.941
183.03	17.132
183.24	-640.893
183.46	26.923
183.67	19.420
183.88	7.913
184.10	12.455
184.31	20.256
184.53	33.183
184.74	37.636
184.96	32.520
185.17	34.996
185.38	38.173
185.60	39.407
185.81	32.913
186.03	27.479
186.24	29.397
186.45	27.061
186.67	15.943
186.88	13.336
187.10	8.360
187.31	4.973
187.52	-3.614
187.74	-1.406
187.95	-8.034
188.17	-9.850
188.38	-3.695
188.59	-6.274
188.81	-13.562
189.02	-0.599
189.24	-1.943
189.45	0.721
189.66	1.207
189.88	-3.859
190.09	-13.140
190.30	-10.683
190.52	-6.248
190.73	-2.877
190.95	-2.325
191.16	4.158
191.37	-7.268
191.59	-9.755
191.80	-13.963
192.02	-8.436
192.23	-10.216
192.44	-7.345
192.66	-1.856
192.87	-10.820
193.08	-15.176
193.30	-12.458
193.51	-7.164
193.73	4.004
193.94	11.519
194.15	11.700
194.37	10.183
194.58	13.440
194.79	7.129
195.01	3.682
195.22	8.164
195.44	10.946
195.65	9.252
195.86	6.721
196.08	-0.412
196.29	-2.853
196.50	-2.039
196.72	0.844
196.93	5.610
197.14	9.605
197.36	11.610
197.57	3.978
197.79	3.794
198.00	2.547
198.21	2.207
198.43	8.102
198.64	10.532
198.85	7.768
199.07	7.735
199.28	3.219
199.49	-0.050
199.71	-0.838
199.92	8.692
200.13	2.398
200.35	1.340
200.56	-4.346
200.78	-9.619
200.99	-10.574
201.20	-4.871
201.42	-4.007
201.63	-10.447
201.84	-2.181
202.06	-2.387
202.27	-1.976
202.48	3.046
202.70	1.187
202.91	5.291
203.12	7.554
203.34	5.671
203.55	1.392
203.76	-0.620
203.98	13.268
204.19	10.228
204.40	10.425
204.62	7.837
204.83	7.787
205.04	13.988
205.26	9.670
205.47	11.659
205.68	12.697
205.90	14.808
206.11	16.028
206.32	7.114
206.54	9.852
206.75	10.245
206.96	12.635
207.18	12.769
207.39	10.685
207.60	18.417
207.82	15.006
208.03	17.911
208.24	16.969
208.45	17.348
208.67	16.791
208.88	11.254
209.09	9.949
209.31	10.379
209.52	5.959
209.73	4.756
209.95	5.183
210.16	7.553
210.37	4.644
210.59	7.798
210.80	8.524
211.01	10.002
211.23	13.409
211.44	11.284
211.65	11.320
211.86	12.826
212.08	15.669
212.29	12.129
212.50	12.123
212.72	11.508
212.93	6.447
213.14	8.931
213.36	7.021
213.57	6.645
213.78	9.722
213.99	9.734
214.21	12.393
214.42	12.238
214.63	13.509
214.85	9.474
215.06	9.877
215.27	14.611
215.49	9.315
215.70	11.170
215.91	10.492
216.12	7.193
216.34	7.740
216.55	4.819
216.76	2.637
216.98	-0.682
217.19	2.808
217.40	4.375
217.61	4.428
217.83	6.234
218.04	6.389
218.25	5.122
218.47	6.769
218.68	5.699
218.89	6.636
219.10	7.466
219.32	6.546
219.53	4.987
219.74	6.030
219.95	2.906
220.17	1.875
220.38	2.247
220.59	1.881
220.81	1.128
221.02	2.247
221.23	1.951
221.44	1.159
221.66	3.354
221.87	3.817
222.08	3.722
222.29	4.507
222.51	6.003
222.72	4.460
222.93	5.895
223.14	7.033
223.36	5.653
223.57	7.060
223.78	7.145
223.99	6.071
224.21	5.568
224.42	3.892
224.63	2.892
224.84	2.364
225.06	3.271
225.27	2.737
225.48	2.638
225.69	3.073
225.91	2.266
226.12	2.063
226.33	2.481
226.54	2.766
226.76	3.360
226.97	3.936
227.18	3.698
227.39	3.665
227.61	3.603
227.82	3.521
228.03	3.497
228.24	3.377
228.46	3.509
228.67	3.544
228.88	3.563
229.09	3.442
229.31	3.389
229.52	3.491
229.73	3.607
229.94	3.616
230.16	3.758
230.37	3.895
230.58	4.041
230.79	3.892
231.00	4.005
231.22	4.286
231.43	4.232
231.64	4.061
231.85	4.075
232.07	3.677
232.28	3.553
232.49	3.362
232.70	3.304
232.91	3.627
233.13	3.863
233.34	4.023
233.55	3.913
233.76	4.007
233.98	4.107
234.19	4.272
234.40	4.086
234.61	4.317
234.82	4.383
235.04	4.255
235.25	4.263
235.46	4.226
235.67	3.503
235.88	3.395
236.10	3.564
236.31	3.489
236.52	3.222
236.73	4.017
236.94	4.055
237.16	3.456
237.37	3.746
237.58	3.514
237.79	3.541
238.01	3.856
238.22	3.424
238.43	3.288
238.64	3.459
238.85	3.196
239.06	2.935
239.28	2.695
239.49	2.957
239.70	2.774
239.91	2.732
240.12	2.554
240.34	2.608
240.55	2.881
240.76	2.911
240.97	2.966
241.18	2.932
241.40	2.906
241.61	2.987
241.82	3.023
242.03	3.080
242.24	3.154
242.45	3.137
242.67	3.182
242.88	3.117
243.09	3.002
243.30	2.780
243.51	3.119
243.73	3.075
243.94	3.083
244.15	3.157
244.36	3.158
244.57	3.152
244.78	3.169
245.00	2.995
245.21	2.856
245.42	2.932
245.63	2.954
245.84	2.870
246.05	2.823
246.27	2.873
246.48	2.866
246.69	2.798
246.90	2.802
247.11	2.771
247.32	2.765
247.54	2.812
247.75	2.831
247.96	2.828
248.17	2.809
248.38	2.853
248.59	2.789
248.81	2.687
249.02	2.748
249.23	2.601
249.44	2.672
249.65	2.695
249.86	2.537
250.07	2.353
250.29	2.258
250.50	2.034
250.71	2.077
250.92	2.002
251.13	2.280
251.34	2.378
251.55	2.451
251.77	2.536
251.98	2.519
252.19	2.604
252.40	2.625
252.61	2.725
252.82	2.881
253.03	2.765
253.25	2.927
253.46	2.625
253.67	2.636
253.88	2.524
254.09	2.603
254.30	2.650
254.51	2.871
254.73	2.825
254.94	2.907
255.15	2.907
255.36	2.967
255.57	2.636
255.78	2.867
255.99	2.722
256.20	2.840
256.42	2.641
256.63	2.467
256.84	2.190
257.05	2.270
257.26	2.223
257.47	2.084
257.68	2.088
257.89	2.238
258.10	2.257
258.32	2.257
258.53	2.247
258.74	2.202
258.95	2.271
259.16	2.323
259.37	2.303
259.58	2.249
259.79	2.315
260.00	2.354
260.22	2.387
260.43	2.417
260.64	2.397
260.85	2.462
261.06	2.524
261.27	2.572
261.48	2.599
261.69	2.543
261.90	2.596
262.12	2.554
262.33	2.650
262.54	2.605
262.75	2.454
262.96	2.476
263.17	2.487
263.38	2.515
263.59	2.404
263.80	2.294
264.01	2.556
264.22	2.612
264.44	2.629
264.65	2.338
264.86	2.248
265.07	2.156
265.28	2.208
265.49	2.059
265.70	2.097
265.91	2.154
266.12	2.185
266.33	2.076
266.54	2.060
266.75	2.048
266.97	2.172
267.18	2.157
267.39	2.125
267.60	2.079
267.81	2.129
268.02	1.994
268.23	1.975
268.44	1.909
268.65	1.883
268.86	1.978
269.07	1.994
269.28	1.833
269.49	1.908
269.70	2.014
269.92	1.986
270.13	1.962
270.34	2.140
270.55	2.053
270.76	1.985
270.97	2.074
271.18	2.072
271.39	2.000
271.60	2.069
271.81	2.134
272.02	2.089
272.23	2.198
272.44	2.228
272.65	2.123
272.86	2.236
273.07	2.313
273.28	2.241
273.49	2.152
273.71	2.139
273.92	2.211
274.13	2.010
274.34	2.054
274.55	1.996
274.76	1.907
274.97	1.967
275.18	1.912
275.39	1.958
275.60	2.016
275.81	2.162
276.02	2.145
276.23	2.074
276.44	2.108
276.65	2.068
276.86	2.128
277.07	2.202
277.28	2.302
277.49	2.379
277.70	2.266
277.91	2.253
278.12	2.053
278.33	2.018
278.54	2.055
278.75	2.051
278.96	2.046
279.17	1.871
279.39	1.801
279.60	1.690
279.81	1.668
280.02	1.698
280.23	1.712
280.44	1.736
280.65	1.880
280.86	1.852
281.07	1.995
281.28	2.012
281.49	2.045
281.70	2.089
281.91	2.042
282.12	2.022
282.33	2.083
282.54	2.072
282.75	2.159
282.96	2.184
283.17	2.224
283.38	2.170
283.59	2.178
283.80	2.136
284.01	2.102
284.22	2.155
284.43	2.102
284.64	2.038
284.85	2.042
285.06	1.986
285.27	1.917
285.48	1.880
285.69	1.908
285.90	1.967
286.11	2.034
286.32	2.046
286.53	1.988
286.74	2.072
286.95	2.082
287.16	2.081
287.37	2.055
287.58	2.101
287.79	2.039
288.00	1.997
288.21	1.877
288.42	1.805
288.63	1.809
288.84	1.844
289.05	1.806
289.26	1.797
289.47	1.832
289.68	1.823
289.89	1.819
290.10	1.760
290.31	1.649
290.51	1.681
290.72	1.704
290.93	1.695
291.14	1.747
291.35	1.650
291.56	1.719
291.77	1.582
291.98	1.605
292.19	1.612
292.40	1.744
292.61	1.744
292.82	1.772
293.03	1.820
293.24	1.788
293.45	1.745
293.66	1.823
293.87	1.795
294.08	1.850
294.29	1.892
294.50	1.842
294.71	1.813
294.92	1.933
295.13	1.943
295.34	1.863
295.55	1.907
295.76	1.839
295.96	1.840
296.17	1.839
296.38	1.889
296.59	1.870
296.80	1.821
297.01	1.856
297.22	1.830
297.43	1.825
297.64	1.887
297.85	1.893
298.06	1.924
298.27	1.954
298.48	1.963
298.69	1.918
298.90	1.977
299.11	2.037
299.32	2.007
299.53	2.004
299.73	1.972
299.94	1.939
300.15	1.850
300.36	1.868
300.57	1.800
300.78	1.778
300.99	1.768
301.20	1.767
301.41	1.753
301.62	1.765
301.83	1.749
302.04	1.709
302.25	1.692
302.45	1.739
302.66	1.665
302.87	1.681
303.08	1.650
303.29	1.656
303.50	1.611
303.71	1.669
303.92	1.633
304.13	1.601
304.34	1.660
304.55	1.706
304.76	1.727
304.96	1.805
305.17	1.812
305.38	1.831
305.59	1.818
305.80	1.757
306.01	1.742
306.22	1.718
306.43	1.776
306.64	1.753
306.85	1.741
307.06	1.720
307.26	1.651
307.47	1.590
307.68	1.635
307.89	1.688
308.10	1.702
308.31	1.733
308.52	1.804
308.73	1.817
308.94	1.842
309.14	1.819
309.35	1.868
309.56	1.919
309.77	1.940
309.98	1.965
310.19	1.931
310.40	1.931
310.61	1.858
310.82	1.815
311.02	1.788
311.23	1.775
311.44	1.704
311.65	1.670
311.86	1.642
312.07	1.623
312.28	1.556
312.49	1.545
312.69	1.562
312.90	1.600
313.11	1.577
313.32	1.583
313.53	1.556
313.74	1.639
313.95	1.613
314.16	1.596
314.36	1.618
314.57	1.668
314.78	1.664
314.99	1.690
315.20	1.681
315.41	1.711
315.62	1.657
315.82	1.707
316.03	1.676
316.24	1.695
316.45	1.734
316.66	1.718
316.87	1.721
317.08	1.674
317.28	1.649
317.49	1.622
317.70	1.642
317.91	1.725
318.12	1.707
318.33	1.736
318.54	1.709
318.74	1.682
318.95	1.676
319.16	1.679
319.37	1.743
319.58	1.758
319.79	1.748
319.99	1.762
320.20	1.719
320.41	1.659
320.62	1.662
320.83	1.665
321.04	1.676
321.24	1.693
321.45	1.712
321.66	1.691
321.87	1.672
322.08	1.681
322.29	1.620
322.49	1.640
322.70	1.680
322.91	1.670
323.12	1.735
323.33	1.749
323.54	1.742
323.74	1.735
323.95	1.733
324.16	1.741
324.37	1.766
324.58	1.796
324.79	1.747
324.99	1.681
325.20	1.709
325.41	1.660
325.62	1.696
325.83	1.681
326.03	1.610
326.24	1.622
326.45	1.644
326.66	1.590
326.87	1.558
327.07	1.624
327.28	1.637
327.49	1.598
327.70	1.594
327.91	1.562
328.11	1.583
328.32	1.610
328.53	1.665
328.74	1.641
328.95	1.654
329.15	1.703
329.36	1.665
329.57	1.671
329.78	1.682
329.99	1.677
330.19	1.622
330.40	1.597
330.61	1.588
330.82	1.500
331.03	1.475
331.23	1.487
331.44	1.456
331.65	1.474
331.86	1.503
332.07	1.518
332.27	1.476
332.48	1.505
332.69	1.537
332.90	1.561
333.10	1.576
333.31	1.612
333.52	1.580
333.73	1.587
333.94	1.541
334.14	1.536
334.35	1.529
334.56	1.600
334.77	1.578
334.97	1.578
335.18	1.535
335.39	1.531
335.60	1.501
335.80	1.509
336.01	1.466
336.22	1.468
336.43	1.446
336.64	1.452
336.84	1.395
337.05	1.403
337.26	1.352
337.47	1.371
337.67	1.438
337.88	1.401
338.09	1.404
338.30	1.447
338.50	1.441
338.71	1.464
338.92	1.442
339.13	1.460
339.33	1.478
339.54	1.469
339.75	1.458
339.96	1.398
340.16	1.430
340.37	1.433
340.58	1.437
340.79	1.487
340.99	1.460
341.20	1.417
341.41	1.398
341.62	1.408
341.82	1.449
342.03	1.419
342.24	1.401
342.44	1.433
342.65	1.398
342.86	1.375
343.07	1.334
343.27	1.398
343.48	1.423
343.69	1.436
343.90	1.459
344.10	1.427
344.31	1.430
344.52	1.487
344.72	1.437
344.93	1.452
345.14	1.455
345.35	1.482
345.55	1.441
345.76	1.434
345.97	1.456
346.18	1.376
346.38	1.382
346.59	1.403
346.80	1.365
347.00	1.363
347.21	1.393
347.42	1.426
347.62	1.420
347.83	1.399
348.04	1.375
348.25	1.349
348.45	1.389
348.66	1.447
348.87	1.461
349.07	1.437
349.28	1.435
349.49	1.423
349.70	1.450
349.90	1.409
350.11	1.413
350.32	1.437
350.52	1.437
350.73	1.452
350.94	1.398
351.14	1.369
351.35	1.387
351.56	1.401
351.76	1.402
351.97	1.345
352.18	1.364
352.39	1.379
352.59	1.398
352.80	1.392
353.01	1.427
353.21	1.438
353.42	1.436
353.63	1.434
353.83	1.411
354.04	1.422
354.25	1.423
354.45	1.402
354.66	1.389
354.87	1.346
355.07	1.321
355.28	1.287
355.49	1.313
355.69	1.350
355.90	1.354
356.11	1.413
356.31	1.432
356.52	1.440
356.73	1.473
356.93	1.481
357.14	1.498
357.35	1.553
357.55	1.561
357.76	1.529
357.97	1.495
358.17	1.535
358.38	1.517
358.59	1.501
358.79	1.511
359.00	1.477
359.21	1.468
359.41	1.450
359.62	1.430
359.83	1.383
360.03	1.381
360.24	1.401
360.44	1.394
360.65	1.375
360.86	1.347
361.06	1.318
361.27	1.338
361.48	1.340
361.68	1.395
361.89	1.416
362.10	1.444
362.30	1.434
362.51	1.426
362.72	1.432
362.92	1.430
363.13	1.435
363.33	1.434
363.54	1.454
363.75	1.442
363.95	1.405
364.16	1.381
364.37	1.403
364.57	1.422
364.78	1.409
364.98	1.375
365.19	1.358
365.40	1.372
365.60	1.387
365.81	1.401
366.02	1.414
366.22	1.394
366.43	1.402
366.63	1.365
366.84	1.357
367.05	1.359
367.25	1.326
367.46	1.325
367.66	1.345
367.87	1.353
368.08	1.346
368.28	1.377
368.49	1.395
368.69	1.390
368.90	1.418
369.11	1.405
369.31	1.437
369.52	1.471
369.72	1.455
369.93	1.412
370.14	1.424
370.34	1.391
370.55	1.354
370.75	1.356
370.96	1.336
371.17	1.319
371.37	1.327
371.58	1.301
371.78	1.297
371.99	1.331
372.20	1.357
372.40	1.330
372.61	1.334
372.81	1.360
373.02	1.367
373.23	1.358
373.43	1.357
373.64	1.372
373.84	1.346
374.05	1.369
374.25	1.374
374.46	1.337
374.67	1.321
374.87	1.351
375.08	1.330
375.28	1.279
375.49	1.302
375.69	1.285
375.90	1.262
376.11	1.286
376.31	1.264
376.52	1.250
376.72	1.261
376.93	1.273
377.13	1.259
377.34	1.277
377.55	1.310
377.75	1.311
377.96	1.299
378.16	1.311
378.37	1.338
378.57	1.346
378.78	1.372
378.98	1.368
379.19	1.393
379.40	1.355
379.60	1.312
379.81	1.321
380.01	1.298
380.22	1.301
380.42	1.295
380.63	1.271
380.83	1.239
381.04	1.197
381.24	1.219
381.45	1.201
381.66	1.208
381.86	1.223
382.07	1.202
382.27	1.228
382.48	1.236
382.68	1.229
382.89	1.243
383.09	1.266
383.30	1.270
383.50	1.237
383.71	1.207
383.91	1.236
384.12	1.261
384.32	1.256
384.53	1.254
384.73	1.261
384.94	1.277
385.15	1.277
385.35	1.286
385.56	1.302
385.76	1.292
385.97	1.322
386.17	1.302
386.38	1.287
386.58	1.286
386.79	1.313
386.99	1.312
387.20	1.289
387.40	1.269
387.61	1.266
387.81	1.272
388.02	1.283
388.22	1.272
388.43	1.272
388.63	1.246
388.84	1.272
389.04	1.224
389.25	1.228
389.45	1.204
389.66	1.247
389.86	1.235
390.07	1.218
390.27	1.224
390.48	1.216
390.68	1.234
390.89	1.265
391.09	1.288
391.30	1.317
391.50	1.338
391.71	1.366
391.91	1.341
392.12	1.362
392.32	1.373
392.53	1.371
392.73	1.385
392.94	1.368
393.14	1.376
393.35	1.359
393.55	1.354
393.75	1.338
393.96	1.344
394.16	1.310
394.37	1.282
394.57	1.289
394.78	1.324
394.98	1.301
395.19	1.300
395.39	1.278
395.60	1.258
395.80	1.253
396.01	1.241
396.21	1.267
396.42	1.278
396.62	1.289
396.83	1.261
397.03	1.260
397.23	1.287
397.44	1.303
397.64	1.312
397.85	1.331
398.05	1.332
398.26	1.341
398.46	1.320
398.67	1.331
398.87	1.341
399.08	1.342
399.28	1.312
399.48	1.295
399.69	1.262
399.89	1.251
400.10	1.259
400.30	1.257
400.51	1.250
400.71	1.242
400.92	1.251
401.12	1.252
401.32	1.247
401.53	1.246
401.73	1.255
401.94	1.295
402.14	1.301
402.35	1.309
402.55	1.325
402.75	1.330
402.96	1.336
403.16	1.341
403.37	1.332
403.57	1.363
403.78	1.384
403.98	1.397
404.18	1.378
404.39	1.380
404.59	1.356
404.80	1.344
405.00	1.339
405.21	1.338
405.41	1.316
405.61	1.327
405.82	1.327
406.02	1.314
406.23	1.304
406.43	1.310
406.63	1.322
406.84	1.342
407.04	1.334
407.25	1.345
407.45	1.351
407.65	1.371
407.86	1.363
408.06	1.329
408.27	1.313
408.47	1.331
408.67	1.318
408.88	1.295
409.08	1.289
409.29	1.312
409.49	1.311
409.69	1.292
409.90	1.287
410.10	1.281
410.31	1.306
410.51	1.332
410.71	1.322
410.92	1.316
411.12	1.328
411.33	1.324
411.53	1.313
411.73	1.301
411.94	1.331
412.14	1.328
412.34	1.345
412.55	1.342
412.75	1.340
412.96	1.316
413.16	1.330
413.36	1.329
413.57	1.330
413.77	1.321
413.97	1.345
414.18	1.335
414.38	1.345
414.59	1.342
414.79	1.330
414.99	1.297
415.20	1.333
415.40	1.341
415.60	1.339
415.81	1.317
416.01	1.328
416.21	1.330
416.42	1.334
416.62	1.340
416.83	1.325
417.03	1.320
417.23	1.330
417.44	1.301
417.64	1.293
417.84	1.286
418.05	1.318
418.25	1.306
418.45	1.292
418.66	1.286
418.86	1.262
419.06	1.281
419.27	1.283
419.47	1.287
419.67	1.296
419.88	1.288
420.08	1.286
420.28	1.265
420.49	1.270
420.69	1.264
420.89	1.263
421.10	1.273
421.30	1.250
421.50	1.253
421.71	1.258
421.91	1.258
422.11	1.270
422.32	1.281
422.52	1.282
422.72	1.286
422.93	1.297
423.13	1.308
423.33	1.318
423.54	1.328
423.74	1.322
423.94	1.319
424.15	1.312
424.35	1.307
424.55	1.303
424.76	1.304
424.96	1.304
425.16	1.299
425.36	1.291
425.57	1.275
425.77	1.270
425.97	1.283
426.18	1.295
426.38	1.306
426.58	1.309
426.79	1.316
426.99	1.309
427.19	1.306
427.39	1.314
427.60	1.315
427.80	1.338
428.00	1.357
428.21	1.355
428.41	1.334
428.61	1.327
428.82	1.316
429.02	1.315
429.22	1.336
429.42	1.345
429.63	1.324
429.83	1.321
430.03	1.304
430.24	1.291
430.44	1.296
430.64	1.305
430.84	1.305
431.05	1.303
431.25	1.307
431.45	1.288
431.65	1.276
431.86	1.290
432.06	1.303
432.26	1.305
432.47	1.324
432.67	1.313
432.87	1.316
433.07	1.324
433.28	1.337
433.48	1.331
433.68	1.327
433.88	1.338
434.09	1.338
434.29	1.324
434.49	1.339
434.69	1.320
434.90	1.318
435.10	1.296
435.30	1.294
435.51	1.305
435.71	1.305
435.91	1.319
436.11	1.316
436.32	1.311
436.52	1.315
436.72	1.310
436.92	1.315
437.13	1.328
437.33	1.334
437.53	1.330
437.73	1.297
437.93	1.299
438.14	1.303
438.34	1.304
438.54	1.314
438.74	1.323
438.95	1.309
439.15	1.315
439.35	1.305
439.55	1.311
439.76	1.316
439.96	1.341
440.16	1.350
440.36	1.352
440.56	1.349
440.77	1.336
440.97	1.328
441.17	1.336
441.37	1.333
441.58	1.344
441.78	1.365
441.98	1.366
442.18	1.352
442.38	1.342
442.59	1.336
442.79	1.338
442.99	1.356
443.19	1.366
443.40	1.363
443.60	1.370
443.80	1.370
444.00	1.355
444.20	1.348
444.41	1.349
444.61	1.353
444.81	1.362
445.01	1.360
445.21	1.355
445.42	1.352
445.62	1.352
445.82	1.338
446.02	1.337
446.22	1.334
446.43	1.331
446.63	1.331
446.83	1.327
447.03	1.321
447.23	1.324
447.44	1.328
447.64	1.326
447.84	1.332
448.04	1.340
448.24	1.334
448.44	1.336
448.65	1.342
448.85	1.348
449.05	1.357
449.25	1.356
449.45	1.364
449.65	1.379
449.86	1.390
450.06	1.389
450.26	1.387
450.46	1.398
450.66	1.394
450.87	1.391
451.07	1.401
451.27	1.393
451.47	1.399
451.67	1.399
451.87	1.390
452.08	1.380
452.28	1.380
452.48	1.384
452.68	1.382
452.88	1.385
453.08	1.395
453.28	1.389
453.49	1.401
453.69	1.412
453.89	1.402
454.09	1.407
454.29	1.416
454.49	1.417
454.70	1.420
454.90	1.431
455.10	1.421
455.30	1.409
455.50	1.410
455.70	1.404
455.90	1.393
456.11	1.393
456.31	1.382
456.51	1.378
456.71	1.383
456.91	1.401
457.11	1.404
457.31	1.414
457.51	1.421
457.72	1.418
457.92	1.414
458.12	1.410
458.32	1.411
458.52	1.422
458.72	1.422
458.92	1.415
459.12	1.403
459.33	1.389
459.53	1.399
459.73	1.413
459.93	1.411
460.13	1.415
460.33	1.412
460.53	1.413
460.73	1.394
460.93	1.396
461.14	1.397
461.34	1.402
461.54	1.406
461.74	1.399
461.94	1.384
462.14	1.388
462.34	1.385
462.54	1.399
462.74	1.393
462.95	1.422
463.15	1.425
463.35	1.424
463.55	1.418
463.75	1.421
463.95	1.429
464.15	1.450
464.35	1.454
464.55	1.455
464.75	1.440
464.95	1.455
465.16	1.430
465.36	1.425
465.56	1.428
465.76	1.434
465.96	1.437
466.16	1.440
466.36	1.429
466.56	1.424
466.76	1.421
466.96	1.436
467.16	1.423
467.36	1.432
467.57	1.440
467.77	1.443
467.97	1.447
468.17	1.443
468.37	1.435
468.57	1.445
468.77	1.449
468.97	1.453
469.17	1.451
469.37	1.466
469.57	1.469
469.77	1.476
469.97	1.477
470.17	1.473
470.37	1.472
470.57	1.473
470.78	1.466
470.98	1.471
471.18	1.475
471.38	1.478
471.58	1.479
471.78	1.493
471.98	1.479
472.18	1.494
472.38	1.485
472.58	1.506
472.78	1.519
472.98	1.523
473.18	1.524
473.38	1.524
473.58	1.533
473.78	1.532
473.98	1.526
474.18	1.546
474.38	1.531
474.58	1.548
474.78	1.542
474.98	1.538
475.18	1.538
475.38	1.540
475.58	1.543
475.79	1.533
475.99	1.528
476.19	1.531
476.39	1.517
476.59	1.520
476.79	1.519
476.99	1.519
477.19	1.518
477.39	1.510
477.59	1.516
477.79	1.513
477.99	1.513
478.19	1.518
478.39	1.517
478.59	1.524
478.79	1.523
478.99	1.523
479.19	1.532
479.39	1.533
479.59	1.543
479.79	1.537
479.99	1.545
480.19	1.540
480.39	1.531
480.59	1.533
480.79	1.534
480.99	1.539
481.19	1.542
481.39	1.535
481.59	1.539
481.79	1.545
481.99	1.550
482.19	1.549
482.39	1.560
482.59	1.566
482.79	1.560
482.99	1.553
483.19	1.561
483.39	1.582
483.59	1.597
483.79	1.597
483.99	1.586
484.19	1.577
484.39	1.574
484.58	1.573
484.78	1.574
484.98	1.577
485.18	1.583
485.38	1.581
485.58	1.560
485.78	1.540
485.98	1.535
486.18	1.542
486.38	1.557
486.58	1.568
486.78	1.566
486.98	1.572
487.18	1.578
487.38	1.582
487.58	1.583
487.78	1.591
487.98	1.596
488.18	1.596
488.38	1.600
488.58	1.598
488.78	1.594
488.98	1.601
489.18	1.602
489.37	1.599
489.57	1.597
489.77	1.602
489.97	1.601
490.17	1.605
490.37	1.614
490.57	1.616
490.77	1.619
490.97	1.626
491.17	1.625
491.37	1.626
491.57	1.634
491.77	1.635
491.97	1.636
492.17	1.643
492.37	1.640
492.56	1.639
492.76	1.638
492.96	1.647
493.16	1.652
493.36	1.656
493.56	1.662
493.76	1.661
493.96	1.671
494.16	1.674
494.36	1.669
494.56	1.679
494.76	1.690
494.95	1.702
495.15	1.694
495.35	1.701
495.55	1.703
495.75	1.705
495.95	1.713
496.15	1.719
496.35	1.722
496.55	1.729
496.75	1.740
496.95	1.741
497.14	1.743
497.34	1.749
497.54	1.755
497.74	1.762
497.94	1.764
498.14	1.764
498.34	1.755
498.54	1.758
498.74	1.755
498.93	1.759
499.13	1.755
499.33	1.768
499.53	1.773
499.73	1.776
499.93	1.778
500.13	1.782
500.33	1.780
500.53	1.799
500.72	1.805
500.92	1.811
501.12	1.818
501.32	1.826
501.52	1.823
501.72	1.822
501.92	1.816
502.12	1.816
502.31	1.825
502.51	1.825
502.71	1.825
502.91	1.829
503.11	1.839
503.31	1.840
503.51	1.846
503.70	1.849
503.90	1.859
504.10	1.875
504.30	1.878
504.50	1.881
504.70	1.891
504.90	1.880
505.09	1.890
505.29	1.890
505.49	1.881
505.69	1.884
505.89	1.881
506.09	1.877
506.29	1.862
506.48	1.878
506.68	1.886
506.88	1.890
507.08	1.906
507.28	1.906
507.48	1.909
507.67	1.914
507.87	1.915
508.07	1.927
508.27	1.936
508.47	1.943
508.67	1.936
508.86	1.938
509.06	1.934
509.26	1.938
509.46	1.938
509.66	1.940
509.85	1.949
510.05	1.960
510.25	1.958
510.45	1.967
510.65	1.972
510.85	1.968
511.04	1.968
511.24	1.977
511.44	1.978
511.64	1.983
511.84	1.990
512.03	1.994
512.23	1.992
512.43	1.985
512.63	1.979
512.83	1.988
513.02	2.000
513.22	2.007
513.42	2.019
513.62	2.026
513.82	2.032
514.01	2.045
514.21	2.054
514.41	2.067
514.61	2.082
514.81	2.078
515.00	2.071
515.20	2.078
515.40	2.087
515.60	2.079
515.80	2.083
515.99	2.084
516.19	2.073
516.39	2.078
516.59	2.064
516.78	2.070
516.98	2.082
517.18	2.082
517.38	2.086
517.58	2.079
517.77	2.086
517.97	2.076
518.17	2.076
518.37	2.090
518.56	2.094
518.76	2.106
518.96	2.106
519.16	2.114
519.36	2.125
519.55	2.128
519.75	2.134
519.95	2.140
520.15	2.145
520.34	2.161
520.54	2.160
520.74	2.163
520.94	2.164
521.13	2.177
521.33	2.182
521.53	2.187
521.73	2.189
521.92	2.192
522.12	2.203
522.32	2.224
522.52	2.226
522.71	2.234
522.91	2.234
523.11	2.247
523.31	2.241
523.50	2.233
523.70	2.234
523.90	2.240
524.09	2.254
524.29	2.257
524.49	2.265
524.69	2.271
524.88	2.269
525.08	2.276
525.28	2.269
525.48	2.277
525.67	2.289
525.87	2.298
526.07	2.301
526.26	2.299
526.46	2.304
526.66	2.306
526.86	2.307
527.05	2.317
527.25	2.317
527.45	2.324
527.64	2.318
527.84	2.323
528.04	2.323
528.24	2.329
528.43	2.331
528.63	2.332
528.83	2.331
529.02	2.329
529.22	2.327
529.42	2.327
529.62	2.330
529.81	2.337
530.01	2.333
530.21	2.331
530.40	2.331
530.60	2.336
530.80	2.337
530.99	2.344
531.19	2.354
531.39	2.359
531.58	2.364
531.78	2.369
531.98	2.375
532.18	2.385
532.37	2.398
532.57	2.403
532.77	2.405
532.96	2.409
533.16	2.411
533.36	2.421
533.55	2.429
533.75	2.432
533.95	2.438
534.14	2.440
534.34	2.452
534.54	2.456
534.73	2.466
534.93	2.472
535.13	2.480
535.32	2.479
535.52	2.474
535.72	2.482
535.91	2.499
536.11	2.501
536.31	2.512
536.50	2.515
536.70	2.517
536.90	2.518
537.09	2.523
537.29	2.530
537.48	2.547
537.68	2.562
537.88	2.564
538.07	2.566
538.27	2.576
538.47	2.589
538.66	2.588
538.86	2.600
539.06	2.604
539.25	2.618
539.45	2.621
539.65	2.627
539.84	2.641
540.04	2.652
540.23	2.658
540.43	2.668
540.63	2.669
540.82	2.675
541.02	2.681
541.22	2.681
541.41	2.677
541.61	2.673
541.80	2.672
542.00	2.667
542.20	2.663
542.39	2.663
542.59	2.663
542.79	2.662
542.98	2.662
543.18	2.661
543.37	2.674
543.57	2.677
543.77	2.692
543.96	2.695
544.16	2.699
544.35	2.711
544.55	2.718
544.75	2.725
544.94	2.730
545.14	2.744
545.33	2.761
545.53	2.758
545.73	2.764
545.92	2.765
546.12	2.772
546.31	2.781
546.51	2.781
546.71	2.787
546.90	2.790
547.10	2.798
547.29	2.803
547.49	2.808
547.69	2.814
547.88	2.826
548.08	2.832
548.27	2.840
548.47	2.847
548.66	2.857
548.86	2.866
549.06	2.870
549.25	2.876
549.45	2.889
549.64	2.894
549.84	2.908
550.03	2.910
550.23	2.931
550.43	2.940
550.62	2.956
550.82	2.972
551.01	2.971
551.21	2.980
551.40	3.001
551.60	3.018
551.80	3.015
551.99	3.011
552.19	3.020
552.38	3.004
552.58	3.004
552.77	3.010
552.97	3.019
553.16	3.021
553.36	3.017
553.56	3.012
553.75	2.997
553.95	2.998
554.14	2.998
554.34	3.014
554.53	3.031
554.73	3.045
554.92	3.052
555.12	3.050
555.31	3.060
555.51	3.095
555.70	3.097
555.90	3.110
556.10	3.122
556.29	3.130
556.49	3.125
556.68	3.136
556.88	3.130
557.07	3.128
557.27	3.144
557.46	3.144
557.66	3.133
557.85	3.148
558.05	3.144
558.24	3.156
558.44	3.176
558.63	3.179
558.83	3.177
559.02	3.205
559.22	3.220
559.41	3.215
559.61	3.235
559.80	3.243
560.00	3.238
560.19	3.250
560.39	3.247
560.58	3.245
560.78	3.263
560.97	3.266
561.17	3.271
561.36	3.265
561.56	3.266
561.75	3.268
561.95	3.282
562.14	3.289
562.34	3.301
562.53	3.310
562.73	3.311
562.92	3.311
563.12	3.330
563.31	3.311
563.51	3.316
563.70	3.338
563.90	3.353
564.09	3.347
564.29	3.365
564.48	3.354
564.68	3.359
564.87	3.376
565.07	3.376
565.26	3.378
565.45	3.396
565.65	3.398
565.84	3.387
566.04	3.369
566.23	3.376
566.43	3.382
566.62	3.392
566.82	3.402
567.01	3.402
567.21	3.399
567.40	3.387
567.60	3.394
567.79	3.397
567.98	3.410
568.18	3.434
568.37	3.438
568.57	3.428
568.76	3.442
568.96	3.440
569.15	3.447
569.35	3.475
569.54	3.492
569.73	3.481
569.93	3.494
570.12	3.493
570.32	3.496
570.51	3.505
570.71	3.510
570.90	3.518
571.09	3.534
571.29	3.545
571.48	3.545
571.68	3.545
571.87	3.564
572.07	3.576
572.26	3.582
572.45	3.590
572.65	3.601
572.84	3.609
573.04	3.607
573.23	3.609
573.43	3.618
573.62	3.627
573.81	3.639
574.01	3.648
574.20	3.637
574.40	3.643
574.59	3.634
574.78	3.624
574.98	3.638
575.17	3.648
575.37	3.647
575.56	3.642
575.75	3.632
575.95	3.645
576.14	3.640
576.34	3.645
576.53	3.656
576.72	3.671
576.92	3.691
577.11	3.692
577.31	3.697
577.50	3.700
577.69	3.704
577.89	3.723
578.08	3.718
578.28	3.730
578.47	3.737
578.66	3.743
578.86	3.751
579.05	3.757
579.24	3.759
579.44	3.767
579.63	3.776
579.83	3.782
580.02	3.780
580.21	3.793
580.41	3.796
580.60	3.815
580.79	3.819
580.99	3.836
581.18	3.840
581.38	3.861
581.57	3.871
581.76	3.887
581.96	3.899
582.15	3.918
582.34	3.931
582.54	3.936
582.73	3.944
582.92	3.956
583.12	3.957
583.31	3.964
583.50	3.946
583.70	3.955
583.89	3.961
584.08	3.967
584.28	3.976
584.47	3.972
584.66	3.981
584.86	3.973
585.05	3.976
585.24	3.976
585.44	3.980
585.63	4.008
585.82	4.011
586.02	4.017
586.21	4.037
586.40	4.035
586.60	4.041
586.79	4.055
586.98	4.059
587.18	4.075
587.37	4.074
587.56	4.077
587.76	4.071
587.95	4.080
588.14	4.081
588.34	4.073
588.53	4.081
588.72	4.090
588.92	4.095
589.11	4.117
589.30	4.112
589.50	4.135
589.69	4.149
589.88	4.154
590.07	4.147
590.27	4.168
590.46	4.165
590.65	4.170
590.85	4.179
591.04	4.186
591.23	4.190
591.43	4.190
591.62	4.187
591.81	4.173
592.00	4.175
592.20	4.180
592.39	4.183
592.58	4.213
592.78	4.222
592.97	4.225
593.16	4.225
593.35	4.226
593.55	4.233
593.74	4.232
593.93	4.259
594.13	4.281
594.32	4.298
594.51	4.297
594.70	4.286
594.90	4.282
595.09	4.277
595.28	4.283
595.47	4.282
595.67	4.293
595.86	4.306
596.05	4.307
596.24	4.309
596.44	4.315
596.63	4.318
596.82	4.315
597.02	4.313
597.21	4.323
597.40	4.328
597.59	4.327
597.79	4.321
597.98	4.321
598.17	4.315
598.36	4.310
598.56	4.305
598.75	4.294
598.94	4.312
599.13	4.338
599.32	4.356
599.52	4.359
599.71	4.393
599.90	4.409
600.09	4.407
600.29	4.425
600.48	4.442
600.67	4.448
600.86	4.478
601.06	4.485
601.25	4.490
601.44	4.490
601.63	4.504
601.82	4.502
602.02	4.507
602.21	4.517
602.40	4.536
602.59	4.535
602.79	4.545
602.98	4.543
603.17	4.543
603.36	4.548
603.55	4.552
603.75	4.548
603.94	4.553
604.13	4.560
604.32	4.573
604.51	4.556
604.71	4.575
604.90	4.581
605.09	4.581
605.28	4.590
605.47	4.592
605.67	4.596
605.86	4.602
606.05	4.615
606.24	4.614
606.43	4.618
606.63	4.630
606.82	4.626
607.01	4.630
607.20	4.647
607.39	4.648
607.59	4.648
607.78	4.662
607.97	4.670
608.16	4.645
608.35	4.681
608.54	4.692
608.74	4.714
608.93	4.721
609.12	4.724
609.31	4.714
609.50	4.736
609.69	4.752
609.89	4.751
610.08	4.759
610.27	4.785
610.46	4.763
610.65	4.778
610.84	4.774
611.04	4.781
611.23	4.780
611.42	4.809
611.61	4.795
611.80	4.787
611.99	4.785
612.19	4.790
612.38	4.791
612.57	4.815
612.76	4.811
612.95	4.828
613.14	4.825
613.33	4.845
613.53	4.845
613.72	4.868
613.91	4.858
614.10	4.883
614.29	4.892
614.48	4.903
614.67	4.901
614.86	4.918
615.06	4.922
615.25	4.940
615.44	4.955
615.63	4.952
615.82	4.946
616.01	4.977
616.20	4.966
616.39	4.983
616.59	4.971
616.78	4.990
616.97	4.980
617.16	4.978
617.35	4.973
617.54	4.967
617.73	4.984
617.92	5.002
618.12	4.987
618.31	5.006
618.50	5.008
618.69	5.034
618.88	5.030
619.07	5.035
619.26	5.041
619.45	5.068
619.64	5.077
619.83	5.089
620.03	5.084
620.22	5.109
620.41	5.105
620.60	5.103
620.79	5.107
620.98	5.113
621.17	5.135
621.36	5.152
621.55	5.167
621.74	5.179
621.93	5.169
622.12	5.188
622.32	5.186
622.51	5.190
622.70	5.199
622.89	5.207
623.08	5.217
623.27	5.219
623.46	5.194
623.65	5.184
623.84	5.187
624.03	5.209
624.22	5.204
624.41	5.201
624.60	5.224
624.79	5.232
624.99	5.231
625.18	5.236
625.37	5.245
625.56	5.263
625.75	5.269
625.94	5.280
626.13	5.280
626.32	5.283
626.51	5.299
626.70	5.287
626.89	5.288
627.08	5.307
627.27	5.314
627.46	5.298
627.65	5.307
627.84	5.307
628.03	5.308
628.22	5.317
628.41	5.327
628.60	5.337
628.79	5.368
628.98	5.373
629.17	5.362
629.37	5.367
629.56	5.390
629.75	5.405
629.94	5.414
630.13	5.415
630.32	5.413
630.51	5.425
630.70	5.432
630.89	5.426
631.08	5.440
631.27	5.443
631.46	5.446
631.65	5.461
631.84	5.464
632.03	5.456
632.22	5.476
632.41	5.487
632.60	5.497
632.79	5.501
632.98	5.500
633.17	5.507
633.36	5.513
633.55	5.519
633.74	5.507
633.93	5.514
634.12	5.533
634.31	5.534
634.50	5.532
634.69	5.530
634.88	5.542
635.07	5.543
635.26	5.530
635.45	5.537
635.64	5.535
635.83	5.570
636.02	5.568
636.21	5.588
636.40	5.588
636.59	5.614
636.78	5.602
636.96	5.618
637.15	5.629
637.34	5.650
637.53	5.661
637.72	5.675
637.91	5.641
638.10	5.671
638.29	5.669
638.48	5.684
638.67	5.661
638.86	5.681
639.05	5.668
639.24	5.684
639.43	5.712
639.62	5.710
639.81	5.713
640.00	5.736
640.19	5.729
640.38	5.751
640.57	5.748
640.76	5.769
640.95	5.771
641.14	5.781
641.32	5.800
641.51	5.795
641.70	5.808
641.89	5.833
642.08	5.850
642.27	5.867
642.46	5.857
642.65	5.870
642.84	5.869
643.03	5.906
643.22	5.919
643.41	5.921
643.60	5.938
643.79	5.970
643.98	5.950
644.16	5.949
644.35	5.922
644.54	5.938
644.73	5.945
644.92	5.970
645.11	5.946
645.30	5.951
645.49	5.955
645.68	5.935
645.87	5.903
646.06	5.919
646.24	5.921
646.43	5.946
646.62	5.939
646.81	5.936
647.00	5.930
647.19	5.945
647.38	5.954
647.57	5.961
647.76	5.995
647.95	6.030
648.13	6.031
648.32	6.053
648.51	6.069
648.70	6.066
648.89	6.090
649.08	6.098
649.27	6.118
649.46	6.116
649.65	6.094
649.83	6.081
650.02	6.074
650.21	6.108
650.40	6.092
650.59	6.095
650.78	6.115
650.97	6.119
651.16	6.117
651.34	6.110
651.53	6.120
651.72	6.140
651.91	6.141
652.10	6.166
652.29	6.159
652.48	6.202
652.66	6.223
652.85	6.235
653.04	6.236
653.23	6.239
653.42	6.245
653.61	6.254
653.80	6.277
653.98	6.282
654.17	6.266
654.36	6.266
654.55	6.233
654.74	6.228
654.93	6.226
655.11	6.220
655.30	6.250
655.49	6.264
655.68	6.262
655.87	6.267
656.06	6.263
656.24	6.271
656.43	6.277
656.62	6.304
656.81	6.296
657.00	6.313
657.19	6.337
657.37	6.350
657.56	6.353
657.75	6.303
657.94	6.312
658.13	6.340
658.31	6.355
658.50	6.364
658.69	6.366
658.88	6.370
659.07	6.361
659.26	6.363
659.44	6.344
659.63	6.351
659.82	6.396
660.01	6.385
660.20	6.396
660.38	6.407
660.57	6.419
660.76	6.408
660.95	6.429
661.14	6.451
661.32	6.441
661.51	6.461
661.70	6.483
661.89	6.514
662.08	6.552
662.26	6.552
662.45	6.538
662.64	6.536
662.83	6.567
663.01	6.558
663.20	6.560
663.39	6.576
663.58	6.578
663.77	6.563
663.95	6.566
664.14	6.561
664.33	6.565
664.52	6.579
664.70	6.585
664.89	6.598
665.08	6.623
665.27	6.626
665.45	6.622
665.64	6.632
665.83	6.634
666.02	6.639
666.20	6.606
666.39	6.617
666.58	6.638
666.77	6.641
666.95	6.625
667.14	6.634
667.33	6.659
667.52	6.679
667.70	6.680
667.89	6.699
668.08	6.709
668.27	6.759
668.45	6.767
668.64	6.771
668.83	6.775
669.02	6.775
669.20	6.756
669.39	6.759
669.58	6.764
669.77	6.771
669.95	6.764
670.14	6.757
670.33	6.736
670.51	6.744
670.70	6.755
670.89	6.778
671.08	6.800
671.26	6.838
671.45	6.814
671.64	6.832
671.82	6.857
672.01	6.874
672.20	6.873
672.39	6.897
672.57	6.890
672.76	6.893
672.95	6.881
673.13	6.880
673.32	6.879
673.51	6.893
673.70	6.883
673.88	6.877
674.07	6.885
674.26	6.909
674.44	6.930
674.63	6.938
674.82	6.950
675.00	6.961
675.19	6.972
675.38	6.970
675.56	6.995
675.75	7.021
675.94	7.042
676.12	7.025
676.31	7.032
676.50	7.010
676.69	7.015
676.87	7.028
677.06	7.024
677.25	7.037
677.43	7.056
677.62	7.059
677.81	7.072
677.99	7.058
678.18	7.070
678.37	7.092
678.55	7.099
678.74	7.099
678.93	7.115
679.11	7.136
679.30	7.115
679.48	7.118
679.67	7.124
679.86	7.114
680.04	7.109
680.23	7.132
680.42	7.123
680.60	7.141
680.79	7.169
680.98	7.160
681.16	7.169
681.35	7.207
681.54	7.168
681.72	7.186
681.91	7.185
682.10	7.220
682.28	7.231
682.47	7.229
682.65	7.228
682.84	7.246
683.03	7.249
683.21	7.251
683.40	7.243
683.59	7.284
683.77	7.272
683.96	7.287
684.14	7.285
684.33	7.278
684.52	7.315
684.70	7.325
684.89	7.303
685.07	7.314
685.26	7.328
685.45	7.324
685.63	7.320
685.82	7.376
686.00	7.392
686.19	7.408
686.38	7.432
686.56	7.437
686.75	7.450
686.93	7.453
687.12	7.454
687.31	7.465
687.49	7.482
687.68	7.499
687.86	7.456
688.05	7.439
688.24	7.434
688.42	7.424
688.61	7.396
688.79	7.396
688.98	7.403
689.17	7.405
689.35	7.402
689.54	7.401
689.72	7.399
689.91	7.405
690.09	7.427
690.28	7.435
690.47	7.434
690.65	7.475
690.84	7.486
691.02	7.485
691.21	7.457
691.39	7.464
691.58	7.496
691.76	7.506
691.95	7.518
692.14	7.551
692.32	7.555
692.51	7.599
692.69	7.599
692.88	7.589
693.06	7.614
693.25	7.657
693.43	7.667
693.62	7.686
693.81	7.678
693.99	7.696
694.18	7.674
694.36	7.678
694.55	7.646
694.73	7.629
694.92	7.642
695.10	7.633
695.29	7.651
695.47	7.662
695.66	7.636
695.84	7.672
696.03	7.655
696.21	7.676
696.40	7.685
696.59	7.708
696.77	7.718
696.96	7.721
697.14	7.738
697.33	7.754
697.51	7.759
697.70	7.793
697.88	7.803
698.07	7.842
698.25	7.849
698.44	7.843
698.62	7.848
698.81	7.852
698.99	7.869
699.18	7.882
699.36	7.857
699.55	7.857
699.73	7.830
699.92	7.822
700.10	7.800
700.29	7.800
700.47	7.802
700.66	7.825
700.84	7.833
701.03	7.815
701.21	7.796
701.40	7.793
701.58	7.813
701.77	7.823
701.95	7.829
702.13	7.844
702.32	7.856
702.50	7.880
702.69	7.866
702.87	7.880
703.06	7.905
703.24	7.930
703.43	7.958
703.61	7.963
703.80	7.975
703.98	7.955
704.17	7.977
704.35	7.969
704.54	7.980
704.72	8.012
704.90	8.005
705.09	8.005
705.27	8.030
705.46	8.070
705.64	8.029
705.83	8.040
706.01	8.054
706.20	8.052
706.38	8.062
706.56	8.048
706.75	8.018
706.93	8.029
707.12	8.040
707.30	8.053
707.49	8.032
707.67	8.075
707.86	8.096
708.04	8.153
708.22	8.160
708.41	8.176
708.59	8.181
708.78	8.157
708.96	8.155
709.14	8.189
709.33	8.176
709.51	8.198
709.70	8.194
709.88	8.183
710.07	8.187
710.25	8.228
710.43	8.218
710.62	8.233
710.80	8.260
710.99	8.304
711.17	8.287
711.35	8.286
711.54	8.290
711.72	8.322
711.91	8.376
712.09	8.369
712.27	8.317
712.46	8.338
712.64	8.349
712.83	8.365
713.01	8.356
713.19	8.370
713.38	8.373
713.56	8.371
713.75	8.374
713.93	8.357
714.11	8.357
714.30	8.383
714.48	8.377
714.66	8.393
714.85	8.401
715.03	8.410
715.22	8.390
715.40	8.435
715.58	8.455
715.77	8.461
715.95	8.467
716.13	8.466
716.32	8.463
716.50	8.479
716.68	8.480
716.87	8.507
717.05	8.513
717.24	8.544
717.42	8.518
717.60	8.531
717.79	8.543
717.97	8.541
718.15	8.565
718.34	8.598
718.52	8.618
718.70	8.611
718.89	8.615
719.07	8.590
719.25	8.583
719.44	8.614
719.62	8.579
719.80	8.582
719.99	8.588
720.17	8.576
720.35	8.572
720.54	8.556
720.72	8.575
720.90	8.543
721.09	8.579
721.27	8.616
721.45	8.600
721.64	8.656
721.82	8.631
722.00	8.620
722.19	8.644
722.37	8.638
722.55	8.666
722.74	8.647
722.92	8.706
723.10	8.728
723.28	8.757
723.47	8.790
723.65	8.814
723.83	8.819
724.02	8.824
724.20	8.823
724.38	8.828
724.57	8.815
724.75	8.846
724.93	8.829
725.11	8.795
725.30	8.745
725.48	8.706
725.66	8.676
725.85	8.736
726.03	8.735
726.21	8.764
726.39	8.793
726.58	8.807
726.76	8.842
726.94	8.841
727.13	8.879
727.31	8.910
727.49	8.985
727.67	8.999
727.86	8.983
728.04	9.019
728.22	9.002
728.40	9.052
728.59	9.065
728.77	9.036
728.95	9.086
729.13	9.087
729.32	9.114
729.50	9.083
729.68	9.099
729.86	9.106
730.05	9.129
730.23	9.148
730.41	9.102
730.59	9.094
730.78	9.144
730.96	9.140
731.14	9.160
731.32	9.141
731.51	9.161
731.69	9.160
731.87	9.175
732.05	9.155
732.24	9.164
732.42	9.177
732.60	9.172
732.78	9.140
732.97	9.143
733.15	9.115
733.33	9.136
733.51	9.126
733.69	9.115
733.88	9.090
734.06	9.106
734.24	9.079
734.42	9.093
734.60	9.109
734.79	9.127
734.97	9.113
735.15	9.144
735.33	9.132
735.52	9.138
735.70	9.146
735.88	9.150
736.06	9.144
736.24	9.194
736.43	9.217
736.61	9.264
736.79	9.277
736.97	9.279
737.15	9.275
737.34	9.268
737.52	9.277
737.70	9.328
737.88	9.383
738.06	9.375
738.24	9.418
738.43	9.422
738.61	9.388
738.79	9.398
738.97	9.444
739.15	9.426
739.33	9.441
739.52	9.417
739.70	9.380
739.88	9.387
740.06	9.426
740.24	9.381
740.42	9.366
740.61	9.368
740.79	9.384
740.97	9.367
741.15	9.396
741.33	9.426
741.51	9.435
741.70	9.456
741.88	9.462
742.06	9.465
742.24	9.496
742.42	9.476
742.60	9.509
742.78	9.507
742.97	9.472
743.15	9.501
743.33	9.487
743.51	9.510
743.69	9.526
743.87	9.538
744.05	9.574
744.24	9.552
744.42	9.613
744.60	9.600
744.78	9.598
744.96	9.652
745.14	9.667
745.32	9.704
745.50	9.731
745.69	9.741
745.87	9.715
746.05	9.723
746.23	9.750
746.41	9.722
746.59	9.705
746.77	9.730
746.95	9.704
747.13	9.648
747.32	9.595
747.50	9.624
747.68	9.636
747.86	9.667
748.04	9.647
748.22	9.658
748.40	9.705
748.58	9.744
748.76	9.728
748.94	9.777
749.13	9.850
749.31	9.896
749.49	9.893
749.67	9.934
749.85	9.913
750.03	9.927
750.21	9.883
750.39	9.915
750.57	9.909
750.75	9.941
750.93	9.922
751.11	9.892
751.30	9.889
751.48	9.892
751.66	9.816
751.84	9.828
752.02	9.796
752.20	9.877
752.38	9.839
752.56	9.886
752.74	9.852
752.92	9.864
753.10	9.889
753.28	9.920
753.46	9.928
753.64	9.944
753.82	9.953
754.00	9.932
754.18	9.950
754.37	9.951
754.55	9.966
754.73	9.954
754.91	9.960
755.09	9.930
755.27	9.941
755.45	9.922
755.63	9.952
755.81	9.973
755.99	9.999
756.17	9.942
756.35	9.934
756.53	9.946
756.71	9.957
756.89	10.007
757.07	10.002
757.25	10.008
757.43	10.014
757.61	10.007
757.79	9.999
757.97	9.999
758.15	10.024
758.33	10.108
758.51	10.102
758.69	10.134
758.87	10.132
759.05	10.132
759.23	10.105
759.41	10.175
759.59	10.177
759.77	10.196
759.95	10.216
760.13	10.261
760.31	10.184
760.49	10.218
760.67	10.236
760.85	10.251
761.03	10.337
761.21	10.394
761.39	10.384
761.57	10.433
761.75	10.420
761.93	10.475
762.11	10.450
762.29	10.447
762.47	10.453
762.65	10.450
762.83	10.398
763.01	10.388
763.19	10.402
763.37	10.425
763.55	10.480
763.73	10.559
763.91	10.588
764.09	10.602
764.27	10.637
764.45	10.623
764.63	10.636
764.81	10.685
764.99	10.683
765.16	10.680
765.34	10.682
765.52	10.638
765.70	10.594
765.88	10.579
766.06	10.568
766.24	10.573
766.42	10.563
766.60	10.590
766.78	10.542
766.96	10.601
767.14	10.607
767.32	10.589
767.50	10.584
767.68	10.594
767.86	10.591
768.03	10.638
768.21	10.632
768.39	10.626
768.57	10.610
768.75	10.667
768.93	10.615
769.11	10.608
769.29	10.642
769.47	10.651
769.65	10.696
769.83	10.731
770.01	10.750
770.19	10.781
770.36	10.813
770.54	10.831
770.72	10.800
770.90	10.748
771.08	10.761
771.26	10.763
771.44	10.828
771.62	10.820
771.80	10.804
771.98	10.716
772.15	10.722
772.33	10.759
772.51	10.728
772.69	10.750
772.87	10.778
773.05	10.738
773.23	10.771
773.41	10.752
773.58	10.740
773.76	10.795
773.94	10.797
774.12	10.789
774.30	10.825
774.48	10.855
774.66	10.826
774.84	10.854
775.01	10.973
775.19	10.966
775.37	10.984
775.55	10.985
775.73	10.954
775.91	11.057
776.09	11.110
776.26	11.019
776.44	10.998
776.62	11.127
776.80	11.119
776.98	11.072
777.16	11.019
777.34	11.028
777.51	11.033
777.69	10.998
777.87	10.958
778.05	10.907
778.23	10.968
778.41	10.988
778.58	10.892
778.76	10.936
778.94	10.895
779.12	10.914
779.30	10.878
779.48	10.896
779.65	10.912
779.83	10.929
780.01	10.970
780.19	10.989
780.37	10.976
780.55	11.051
780.72	11.015
780.90	11.070
781.08	11.141
781.26	11.249
781.44	11.243
781.61	11.207
781.79	11.263
781.97	11.191
782.15	11.161
782.33	11.231
782.50	11.157
782.68	11.204
782.86	11.150
783.04	11.091
783.22	11.025
783.39	11.040
783.57	11.079
783.75	11.054
783.93	11.189
784.11	11.251
784.28	11.086
784.46	11.167
784.64	11.133
784.82	11.173
784.99	11.218
785.17	11.245
785.35	11.281
785.53	11.331
785.71	11.315
785.88	11.247
786.06	11.173
786.24	11.339
786.42	11.269
786.59	11.277
786.77	11.239
786.95	11.208
787.13	11.223
787.30	11.274
787.48	11.261
787.66	11.225
787.84	11.211
788.01	11.254
788.19	11.256
788.37	11.354
788.55	11.354
788.72	11.427
788.90	11.400
789.08	11.507
789.26	11.468
789.43	11.487
789.61	11.581
789.79	11.627
789.97	11.614
790.14	11.629
790.32	11.608
790.50	11.585
790.68	11.588
790.85	11.621
791.03	11.503
791.21	11.511
791.38	11.426
791.56	11.384
791.74	11.395
791.92	11.434
792.09	11.411
792.27	11.455
792.45	11.504
792.62	11.468
792.80	11.438
792.98	11.391
793.16	11.334
793.33	11.415
793.51	11.356
793.69	11.296
793.86	11.259
794.04	11.209
794.22	11.165
794.39	11.235
794.57	11.196
794.75	11.363
794.93	11.547
795.10	11.579
795.28	11.532
795.46	11.687
795.63	11.735
795.81	11.822
795.99	11.755
796.16	11.770
796.34	11.718
796.52	11.767
796.69	11.678
796.87	11.624
797.05	11.726
797.22	11.803
797.40	11.823
797.58	11.849
797.75	11.814
797.93	11.951
798.11	12.000
798.28	12.051
798.46	12.100
798.64	12.085
798.81	12.020
798.99	11.960
799.17	11.980
799.34	11.796
799.52	11.775
799.70	11.784
799.87	11.836
800.05	11.719
800.22	11.693
800.40	11.663
800.58	11.652
800.75	11.759
800.93	11.830
801.11	11.782
801.28	11.970
801.46	11.939
801.63	11.970
801.81	11.964
801.99	12.120
802.16	12.126
802.34	12.177
802.52	12.301
802.69	12.292
802.87	12.234
803.04	12.332
803.22	12.419
803.40	12.363
803.57	12.381
803.75	12.292
803.93	12.179
804.10	12.138
804.28	12.102
804.45	12.005
804.63	12.047
804.81	12.106
804.98	12.124
805.16	12.064
805.33	12.307
805.51	12.356
805.68	12.447
805.86	12.571
806.04	12.652
806.21	12.712
806.39	12.831
806.56	12.741
806.74	12.677
806.92	12.673
807.09	12.572
807.27	12.492
807.44	12.407
807.62	12.387
807.79	12.338
807.97	12.293
808.15	12.337
808.32	12.239
808.50	12.284
808.67	12.336
808.85	12.311
809.02	12.376
809.20	12.287
809.38	12.314
809.55	12.300
809.73	12.329
809.90	12.427
810.08	12.306
810.25	12.243
810.43	12.199
810.60	12.215
810.78	12.187
810.95	12.151
811.13	12.199
811.31	12.164
811.48	12.202
811.66	12.232
811.83	12.156
812.01	12.236
812.18	12.265
812.36	12.294
812.53	12.150
812.71	12.097
812.88	12.060
813.06	12.010
813.23	12.057
813.41	12.161
813.58	12.078
813.76	12.141
813.93	12.116
814.11	12.124
814.28	12.178
814.46	12.406
814.63	12.475
814.81	12.566
814.98	12.614
815.16	12.667
815.33	12.457
815.51	12.569
815.68	12.490
815.86	12.464
816.03	12.563
816.21	12.634
816.38	12.434
816.56	12.357
816.73	12.354
816.91	12.448
817.08	12.481
817.26	12.594
817.43	12.551
817.61	12.575
817.78	12.666
817.96	12.594
818.13	12.589
818.31	12.785
818.48	12.854
818.66	12.883
818.83	12.774
819.01	12.636
819.18	12.685
819.36	12.694
819.53	12.722
819.70	12.694
819.88	12.802
820.05	12.868
820.23	12.898
820.40	12.988
820.58	12.951
820.75	13.111
820.93	13.139
821.10	13.142
821.28	13.269
821.45	13.338
821.62	13.436
821.80	13.452
821.97	13.474
822.15	13.578
822.32	13.685
822.50	13.857
822.67	14.028
822.84	14.181
823.02	14.209
823.19	14.126
823.37	14.050
823.54	13.961
823.72	13.880
823.89	13.806
824.06	13.744
824.24	13.699
824.41	13.646
824.59	13.581
824.76	13.521
824.94	13.458
825.11	13.412
825.28	13.377
825.46	13.351
825.63	13.362
825.81	13.366
825.98	13.394
826.15	13.409
826.33	13.444
826.50	13.453
826.68	13.453
826.85	13.462
827.02	13.479
827.20	13.551
827.37	13.644
827.54	13.760
827.72	13.874
827.89	13.953
828.07	14.042
828.24	14.077
828.41	14.106
828.59	14.113
828.76	14.114
828.94	14.105
829.11	14.054
829.28	14.001
829.46	13.905
829.63	13.856
829.80	13.790
829.98	13.685
830.15	13.612
830.32	13.549
830.50	13.505
830.67	13.485
830.85	13.489
831.02	13.459
831.19	13.472
831.37	13.480
831.54	13.488
831.71	13.453
831.89	13.602
832.06	13.596
832.23	13.657
832.41	13.620
832.58	13.600
832.75	13.665
832.93	13.678
833.10	13.709
833.27	13.815
833.45	13.887
833.62	13.980
833.79	13.923
833.97	14.076
834.14	14.168
834.31	14.293
834.49	14.440
834.66	14.405
834.83	14.500
835.01	14.463
835.18	14.458
835.35	14.416
835.52	14.377
835.70	14.378
835.87	14.305
836.04	14.268
836.22	14.170
836.39	14.089
836.56	14.046
836.74	13.964
836.91	13.954
837.08	13.907
837.25	13.875
837.43	13.902
837.60	13.803
837.77	13.803
837.95	13.823
838.12	13.881
838.29	13.824
838.46	13.830
838.64	13.836
838.81	13.690
838.98	13.661
839.16	13.695
839.33	13.486
839.50	13.480
839.67	13.671
839.85	13.460
840.02	13.626
840.19	13.537
840.36	13.668
840.54	13.724
840.71	13.946
840.88	14.129
841.06	14.118
841.23	14.212
841.40	14.285
841.57	14.190
841.75	14.269
841.92	14.119
842.09	14.143
842.26	14.078
842.44	13.989
842.61	13.981
842.78	13.930
842.95	13.955
843.12	13.864
843.30	13.820
843.47	13.723
843.64	13.663
843.81	13.733
843.99	13.696
844.16	13.606
844.33	13.638
844.50	13.603
844.68	13.503
844.85	13.184
845.02	13.502
845.19	13.555
845.36	13.499
845.54	13.542
845.71	13.539
845.88	13.604
846.05	13.758
846.22	13.863
846.40	13.904
846.57	14.085
846.74	14.255
846.91	13.979
847.08	13.869
847.26	14.127
847.43	14.189
847.60	13.988
847.77	14.139
847.94	13.868
848.12	13.886
848.29	13.692
848.46	13.433
848.63	13.676
848.80	13.838
848.98	13.781
849.15	13.694
849.32	13.626
849.49	13.589
849.66	13.502
849.83	13.579
850.01	13.426
850.18	13.545
850.35	13.574
850.52	13.604
850.69	13.345
850.86	13.440
851.04	13.274
851.21	13.468
851.38	13.578
851.55	13.602
851.72	13.338
851.89	13.488
852.06	13.426
852.24	13.295
852.41	13.388
852.58	13.299
852.75	13.532
852.92	13.546
853.09	13.427
853.26	13.540
853.44	13.634
853.61	14.077
853.78	13.754
853.95	13.697
854.12	13.647
854.29	13.436
854.46	13.696
854.64	13.629
854.81	13.686
854.98	13.580
855.15	13.628
855.32	13.564
855.49	13.421
855.66	13.455
855.83	13.471
856.00	13.559
856.18	13.684
856.35	13.601
856.52	13.450
856.69	13.702
856.86	13.801
857.03	13.770
857.20	14.027
857.37	14.524
857.54	14.953
857.71	15.054
857.89	15.017
858.06	14.774
858.23	14.661
858.40	14.569
858.57	14.230
858.74	14.256
858.91	13.961
859.08	13.905
859.25	13.501
859.42	13.456
859.59	13.299
859.76	13.622
859.94	13.661
860.11	14.085
860.28	14.354
860.45	14.600
860.62	14.601
860.79	14.846
860.96	14.671
861.13	14.465
861.30	14.159
861.47	14.312
861.64	14.301
861.81	14.336
861.98	13.927
862.15	13.837
862.32	13.835
862.49	14.035
862.66	14.303
862.83	14.386
863.01	14.765
863.18	15.095
863.35	14.800
863.52	15.152
863.69	14.889
863.86	14.996
864.03	14.923
864.20	15.058
864.37	14.892
864.54	14.798
864.71	14.982
864.88	14.924
865.05	14.730
865.22	14.894
865.39	14.428
865.56	14.838
865.73	15.008
865.90	14.961
866.07	14.855
866.24	14.689
866.41	14.734
866.58	14.430
866.75	14.388
866.92	14.334
867.09	14.443
867.26	14.569
867.43	14.431
867.60	14.268
867.77	14.449
867.94	14.485
868.11	14.519
868.28	14.670
868.45	14.560
868.62	14.695
868.79	15.013
868.96	14.987
869.13	14.848
869.30	14.986
869.47	15.037
869.64	14.821
869.81	14.748
869.98	15.096
870.15	14.913
870.32	15.164
870.49	14.668
870.66	14.625
870.83	14.451
871.00	14.674
871.16	14.280
871.33	14.395
871.50	14.414
871.67	14.754
871.84	14.423
872.01	14.560
872.18	14.607
872.35	15.177
872.52	15.015
872.69	15.008
872.86	14.864
873.03	15.256
873.20	15.194
873.37	15.466
873.54	15.078
873.71	15.206
873.88	15.121
874.05	15.220
874.21	15.138
874.38	14.862
874.55	15.102
874.72	15.088
874.89	14.884
875.06	14.851
875.23	14.878
875.40	14.992
875.57	14.930
875.74	14.865
875.91	14.767
876.08	14.635
876.24	14.848
876.41	14.739
876.58	14.936
876.75	15.168
876.92	15.101
877.09	15.063
877.26	15.184
877.43	15.286
877.60	15.238
877.77	15.175
877.93	15.456
878.10	15.581
878.27	15.548
878.44	15.259
878.61	15.207
878.78	15.173
878.95	15.078
879.12	15.094
879.28	15.034
879.45	15.098
879.62	15.229
879.79	14.866
879.96	14.977
880.13	15.093
880.30	15.249
880.47	15.260
880.63	15.501
880.80	15.549
880.97	15.540
881.14	15.622
881.31	15.765
881.48	15.908
881.65	16.334
881.81	16.581
881.98	16.912
882.15	17.171
882.32	17.429
882.49	17.501
882.66	17.541
882.82	17.488
882.99	17.456
883.16	17.388
883.33	17.316
883.50	17.215
883.67	17.171
883.83	17.104
884.00	17.017
884.17	16.911
884.34	16.844
884.51	16.780
884.68	16.737
884.84	16.696
885.01	16.664
885.18	16.664
885.35	16.651
885.52	16.584
885.68	16.571
885.85	16.551
886.02	16.883
886.19	16.068
886.36	16.092
886.53	16.875
886.69	15.929
>>>>>End Spectral Data<<<<<
