OOIBase32 Version 2.0.6.5 Data File
++++++++++++++++++++++++++++++++++++
Date: 03-24-2011, 10:55:29
User: Valued Ocean Optics Customer
Spectrometer Serial Number: USB4C01507
Spectrometer Channel: Master
Integration Time (msec): 46
Spectra Averaged: 30
Boxcar Smoothing: 5
Correct for Electrical Dark: Enabled
Time Normalized: Disabled
Dual-beam Reference: Disabled
Reference Channel: Master
Temperature: Not acquired
Spectrometer Type: S4000
ADC Type: USB4000
Number of Pixels in File: 3648
Graph Title: 
>>>>>Begin Spectral Data<<<<<
179.17	1105.296
179.39	3077.783
179.60	-86.970
179.82	31.050
180.03	317.264
180.24	-656.708
180.46	-31.134
180.67	-41.284
180.89	-93.428
181.10	-179.519
181.31	151.436
181.53	-100.191
181.74	68.705
181.96	65.005
182.17	63.542
182.39	71.521
182.60	76.574
182.81	164.848
183.03	130.149
183.24	-216.003
183.46	30.411
183.67	32.980
183.88	31.190
184.10	46.171
184.31	36.518
184.53	34.976
184.74	30.625
184.96	33.247
185.17	29.273
185.38	27.190
185.60	28.309
185.81	28.274
186.03	22.859
186.24	19.762
186.45	13.253
186.67	13.184
186.88	13.523
187.10	12.149
187.31	3.467
187.52	7.232
187.74	6.019
187.95	5.764
188.17	-2.836
188.38	7.394
188.59	8.745
188.81	7.174
189.02	14.280
189.24	18.415
189.45	24.305
189.66	20.430
189.88	7.113
190.09	7.977
190.30	9.238
190.52	18.241
190.73	6.914
190.95	4.201
191.16	2.639
191.37	-1.774
191.59	-9.055
191.80	-15.789
192.02	-14.062
192.23	-5.174
192.44	-13.716
192.66	-18.215
192.87	-40.673
193.08	-37.403
193.30	-38.289
193.51	-29.655
193.73	-21.574
193.94	-6.103
194.15	-1.248
194.37	5.482
194.58	8.581
194.79	12.100
195.01	10.651
195.22	19.302
195.44	21.039
195.65	21.581
195.86	14.795
196.08	1.186
196.29	-3.726
196.50	0.764
196.72	5.061
196.93	6.425
197.14	4.254
197.36	12.067
197.57	7.881
197.79	16.741
198.00	15.275
198.21	18.459
198.43	24.642
198.64	25.561
198.85	18.536
199.07	17.366
199.28	14.993
199.49	13.214
199.71	9.868
199.92	12.864
200.13	-1.378
200.35	5.672
200.56	-1.479
200.78	-4.092
200.99	-7.522
201.20	0.104
201.42	-5.971
201.63	-14.734
201.84	-11.706
202.06	-4.909
202.27	-3.399
202.48	4.113
202.70	-7.343
202.91	-2.874
203.12	-3.483
203.34	-5.324
203.55	-5.590
203.76	-0.779
203.98	6.837
204.19	6.335
204.40	4.808
204.62	5.241
204.83	-0.976
205.04	3.519
205.26	1.788
205.47	7.139
205.68	8.879
205.90	6.367
206.11	6.686
206.32	2.560
206.54	3.167
206.75	-0.514
206.96	1.004
207.18	9.406
207.39	12.468
207.60	18.539
207.82	16.207
208.03	18.808
208.24	19.153
208.45	18.927
208.67	19.386
208.88	18.728
209.09	18.910
209.31	16.681
209.52	10.009
209.73	8.736
209.95	7.033
210.16	5.700
210.37	4.528
210.59	3.976
210.80	-0.582
211.01	1.794
211.23	4.824
211.44	1.377
211.65	0.588
211.86	4.580
212.08	3.398
212.29	2.717
212.50	2.157
212.72	-1.114
212.93	-5.885
213.14	-1.694
213.36	-4.421
213.57	-5.198
213.78	0.617
213.99	3.312
214.21	6.718
214.42	9.073
214.63	7.155
214.85	5.859
215.06	7.216
215.27	13.173
215.49	10.926
215.70	10.431
215.91	8.808
216.12	4.911
216.34	5.428
216.55	3.762
216.76	3.183
216.98	2.022
217.19	1.294
217.40	4.899
217.61	4.927
217.83	8.243
218.04	9.530
218.25	8.104
218.47	9.011
218.68	9.397
218.89	5.827
219.10	7.279
219.32	8.215
219.53	8.706
219.74	8.313
219.95	6.396
220.17	3.926
220.38	4.833
220.59	5.195
220.81	5.205
221.02	5.399
221.23	7.305
221.44	5.768
221.66	6.754
221.87	7.544
222.08	6.535
222.29	7.415
222.51	7.945
222.72	7.223
222.93	8.029
223.14	8.777
223.36	7.765
223.57	6.588
223.78	6.194
223.99	5.571
224.21	5.649
224.42	5.382
224.63	3.692
224.84	3.180
225.06	2.824
225.27	2.713
225.48	2.363
225.69	2.349
225.91	2.931
226.12	2.402
226.33	2.884
226.54	2.421
226.76	2.281
226.97	2.614
227.18	2.412
227.39	2.339
227.61	2.433
227.82	2.332
228.03	2.362
228.24	2.277
228.46	2.415
228.67	2.327
228.88	2.325
229.09	2.307
229.31	2.268
229.52	2.412
229.73	2.684
229.94	2.479
230.16	2.694
230.37	2.689
230.58	2.657
230.79	2.549
231.00	2.483
231.22	2.652
231.43	3.126
231.64	3.372
231.85	3.562
232.07	3.127
232.28	3.416
232.49	3.308
232.70	3.043
232.91	3.312
233.13	3.537
233.34	3.405
233.55	3.627
233.76	3.174
233.98	3.105
234.19	2.808
234.40	2.825
234.61	2.789
234.82	2.724
235.04	2.874
235.25	2.831
235.46	2.851
235.67	3.051
235.88	2.712
236.10	2.909
236.31	2.825
236.52	3.124
236.73	3.596
236.94	3.826
237.16	3.247
237.37	3.361
237.58	3.065
237.79	2.833
238.01	2.479
238.22	2.655
238.43	2.525
238.64	2.826
238.85	2.427
239.06	2.314
239.28	2.123
239.49	2.513
239.70	2.313
239.91	2.492
240.12	2.573
240.34	2.636
240.55	2.580
240.76	2.616
240.97	2.481
241.18	2.647
241.40	2.506
241.61	2.465
241.82	2.428
242.03	2.552
242.24	2.440
242.45	2.321
242.67	2.260
242.88	2.293
243.09	2.179
243.30	2.007
243.51	2.096
243.73	2.117
243.94	2.041
244.15	1.997
244.36	1.840
244.57	2.019
244.78	2.087
245.00	2.136
245.21	2.077
245.42	2.115
245.63	2.237
245.84	2.159
246.05	2.137
246.27	2.171
246.48	2.146
246.69	2.120
246.90	2.091
247.11	2.058
247.32	2.071
247.54	2.056
247.75	2.057
247.96	2.011
248.17	2.018
248.38	2.041
248.59	2.015
248.81	1.994
249.02	2.062
249.23	2.075
249.44	2.201
249.65	2.263
249.86	2.145
250.07	2.195
250.29	2.047
250.50	1.853
250.71	1.870
250.92	1.819
251.13	1.872
251.34	1.926
251.55	1.828
251.77	1.765
251.98	1.708
252.19	1.815
252.40	1.816
252.61	1.858
252.82	1.816
253.03	1.748
253.25	1.869
253.46	1.720
253.67	1.675
253.88	1.736
254.09	1.925
254.30	1.850
254.51	1.884
254.73	1.797
254.94	1.943
255.15	2.080
255.36	2.041
255.57	1.878
255.78	1.911
255.99	1.804
256.20	2.030
256.42	1.875
256.63	1.752
256.84	1.652
257.05	1.711
257.26	1.746
257.47	1.779
257.68	1.891
257.89	1.823
258.10	1.993
258.32	1.935
258.53	1.818
258.74	1.827
258.95	1.890
259.16	1.864
259.37	1.823
259.58	1.728
259.79	1.729
260.00	1.680
260.22	1.668
260.43	1.593
260.64	1.564
260.85	1.585
261.06	1.605
261.27	1.519
261.48	1.515
261.69	1.405
261.90	1.492
262.12	1.374
262.33	1.459
262.54	1.566
262.75	1.582
262.96	1.584
263.17	1.664
263.38	1.638
263.59	1.729
263.80	1.805
264.01	2.006
264.22	1.861
264.44	1.998
264.65	1.772
264.86	1.751
265.07	1.630
265.28	1.667
265.49	1.508
265.70	1.467
265.91	1.485
266.12	1.431
266.33	1.436
266.54	1.553
266.75	1.582
266.97	1.689
267.18	1.751
267.39	1.844
267.60	1.814
267.81	1.854
268.02	1.792
268.23	1.832
268.44	1.825
268.65	1.716
268.86	1.796
269.07	1.862
269.28	1.720
269.49	1.711
269.70	1.646
269.92	1.759
270.13	1.720
270.34	1.857
270.55	1.852
270.76	1.896
270.97	1.964
271.18	1.902
271.39	1.747
271.60	1.826
271.81	1.852
272.02	1.861
272.23	1.804
272.44	1.862
272.65	1.851
272.86	1.842
273.07	1.784
273.28	1.881
273.49	1.864
273.71	1.857
273.92	1.891
274.13	1.724
274.34	1.676
274.55	1.698
274.76	1.641
274.97	1.592
275.18	1.455
275.39	1.502
275.60	1.505
275.81	1.606
276.02	1.559
276.23	1.508
276.44	1.597
276.65	1.746
276.86	1.684
277.07	1.709
277.28	1.665
277.49	1.848
277.70	1.765
277.91	1.684
278.12	1.527
278.33	1.508
278.54	1.579
278.75	1.504
278.96	1.360
279.17	1.358
279.39	1.321
279.60	1.322
279.81	1.192
280.02	1.182
280.23	1.167
280.44	1.174
280.65	1.241
280.86	1.187
281.07	1.272
281.28	1.396
281.49	1.336
281.70	1.432
281.91	1.402
282.12	1.483
282.33	1.613
282.54	1.560
282.75	1.599
282.96	1.688
283.17	1.731
283.38	1.765
283.59	1.678
283.80	1.665
284.01	1.556
284.22	1.670
284.43	1.633
284.64	1.525
284.85	1.552
285.06	1.536
285.27	1.504
285.48	1.455
285.69	1.431
285.90	1.550
286.11	1.622
286.32	1.560
286.53	1.466
286.74	1.497
286.95	1.533
287.16	1.570
287.37	1.565
287.58	1.531
287.79	1.585
288.00	1.553
288.21	1.394
288.42	1.324
288.63	1.495
288.84	1.499
289.05	1.451
289.26	1.509
289.47	1.455
289.68	1.445
289.89	1.410
290.10	1.291
290.31	1.155
290.51	1.159
290.72	1.213
290.93	1.184
291.14	1.192
291.35	1.179
291.56	1.155
291.77	1.113
291.98	1.091
292.19	1.147
292.40	1.169
292.61	1.293
292.82	1.330
293.03	1.368
293.24	1.351
293.45	1.403
293.66	1.428
293.87	1.421
294.08	1.386
294.29	1.510
294.50	1.422
294.71	1.473
294.92	1.562
295.13	1.578
295.34	1.439
295.55	1.449
295.76	1.329
295.96	1.370
296.17	1.374
296.38	1.470
296.59	1.387
296.80	1.430
297.01	1.425
297.22	1.385
297.43	1.362
297.64	1.455
297.85	1.433
298.06	1.496
298.27	1.506
298.48	1.465
298.69	1.378
298.90	1.436
299.11	1.448
299.32	1.439
299.53	1.417
299.73	1.442
299.94	1.493
300.15	1.453
300.36	1.458
300.57	1.396
300.78	1.405
300.99	1.491
301.20	1.427
301.41	1.438
301.62	1.489
301.83	1.510
302.04	1.519
302.25	1.403
302.45	1.426
302.66	1.374
302.87	1.388
303.08	1.421
303.29	1.376
303.50	1.417
303.71	1.421
303.92	1.420
304.13	1.369
304.34	1.363
304.55	1.388
304.76	1.355
304.96	1.363
305.17	1.334
305.38	1.266
305.59	1.291
305.80	1.249
306.01	1.224
306.22	1.149
306.43	1.183
306.64	1.115
306.85	1.083
307.06	1.093
307.26	1.084
307.47	1.045
307.68	1.129
307.89	1.091
308.10	1.091
308.31	1.138
308.52	1.253
308.73	1.294
308.94	1.324
309.14	1.370
309.35	1.459
309.56	1.481
309.77	1.496
309.98	1.453
310.19	1.469
310.40	1.492
310.61	1.485
310.82	1.431
311.02	1.417
311.23	1.406
311.44	1.366
311.65	1.291
311.86	1.269
312.07	1.263
312.28	1.229
312.49	1.218
312.69	1.195
312.90	1.155
313.11	1.153
313.32	1.124
313.53	1.121
313.74	1.046
313.95	1.037
314.16	1.043
314.36	1.057
314.57	1.125
314.78	1.128
314.99	1.153
315.20	1.157
315.41	1.164
315.62	1.138
315.82	1.180
316.03	1.241
316.24	1.291
316.45	1.347
316.66	1.341
316.87	1.357
317.08	1.349
317.28	1.371
317.49	1.337
317.70	1.312
317.91	1.295
318.12	1.263
318.33	1.272
318.54	1.240
318.74	1.200
318.95	1.227
319.16	1.207
319.37	1.205
319.58	1.182
319.79	1.226
319.99	1.211
320.20	1.292
320.41	1.339
320.62	1.373
320.83	1.380
321.04	1.388
321.24	1.345
321.45	1.404
321.66	1.339
321.87	1.371
322.08	1.374
322.29	1.396
322.49	1.374
322.70	1.358
322.91	1.379
323.12	1.420
323.33	1.420
323.54	1.434
323.74	1.357
323.95	1.382
324.16	1.358
324.37	1.341
324.58	1.353
324.79	1.298
324.99	1.239
325.20	1.242
325.41	1.232
325.62	1.228
325.83	1.258
326.03	1.220
326.24	1.249
326.45	1.262
326.66	1.217
326.87	1.176
327.07	1.200
327.28	1.204
327.49	1.153
327.70	1.121
327.91	1.110
328.11	1.084
328.32	1.099
328.53	1.173
328.74	1.138
328.95	1.156
329.15	1.169
329.36	1.217
329.57	1.255
329.78	1.285
329.99	1.263
330.19	1.232
330.40	1.219
330.61	1.267
330.82	1.138
331.03	1.117
331.23	1.130
331.44	1.147
331.65	1.081
331.86	1.093
332.07	1.059
332.27	1.090
332.48	1.094
332.69	1.133
332.90	1.127
333.10	1.191
333.31	1.198
333.52	1.201
333.73	1.222
333.94	1.234
334.14	1.208
334.35	1.225
334.56	1.219
334.77	1.212
334.97	1.172
335.18	1.090
335.39	1.074
335.60	1.095
335.80	1.056
336.01	1.028
336.22	0.978
336.43	0.969
336.64	0.971
336.84	0.954
337.05	0.952
337.26	0.963
337.47	1.002
337.67	1.005
337.88	0.955
338.09	0.989
338.30	1.018
338.50	1.129
338.71	1.154
338.92	1.191
339.13	1.221
339.33	1.250
339.54	1.191
339.75	1.207
339.96	1.214
340.16	1.220
340.37	1.252
340.58	1.226
340.79	1.191
340.99	1.188
341.20	1.121
341.41	1.087
341.62	1.075
341.82	1.125
342.03	1.044
342.24	1.035
342.44	1.083
342.65	1.057
342.86	1.030
343.07	0.995
343.27	1.034
343.48	1.057
343.69	1.031
343.90	1.065
344.10	1.022
344.31	1.070
344.52	1.089
344.72	1.048
344.93	1.025
345.14	1.038
345.35	1.047
345.55	1.042
345.76	1.011
345.97	1.067
346.18	1.041
346.38	1.091
346.59	1.105
346.80	1.118
347.00	1.116
347.21	1.150
347.42	1.198
347.62	1.194
347.83	1.137
348.04	1.122
348.25	1.070
348.45	1.078
348.66	1.048
348.87	1.100
349.07	1.064
349.28	1.095
349.49	1.046
349.70	1.055
349.90	1.034
350.11	1.034
350.32	1.027
350.52	1.080
350.73	1.077
350.94	1.136
351.14	1.090
351.35	1.130
351.56	1.138
351.76	1.141
351.97	1.067
352.18	1.117
352.39	1.124
352.59	1.201
352.80	1.176
353.01	1.205
353.21	1.155
353.42	1.152
353.63	1.098
353.83	1.069
354.04	1.085
354.25	1.106
354.45	1.059
354.66	1.088
354.87	1.035
355.07	1.059
355.28	1.014
355.49	1.049
355.69	1.056
355.90	1.103
356.11	1.139
356.31	1.153
356.52	1.174
356.73	1.205
356.93	1.163
357.14	1.186
357.35	1.191
357.55	1.225
357.76	1.180
357.97	1.159
358.17	1.171
358.38	1.152
358.59	1.134
358.79	1.137
359.00	1.129
359.21	1.153
359.41	1.131
359.62	1.111
359.83	1.098
360.03	1.108
360.24	1.157
360.44	1.115
360.65	1.101
360.86	1.145
361.06	1.127
361.27	1.139
361.48	1.116
361.68	1.149
361.89	1.142
362.10	1.130
362.30	1.161
362.51	1.117
362.72	1.145
362.92	1.156
363.13	1.095
363.33	1.083
363.54	1.084
363.75	1.114
363.95	1.090
364.16	1.081
364.37	1.108
364.57	1.088
364.78	1.104
364.98	1.087
365.19	1.056
365.40	1.106
365.60	1.116
365.81	1.149
366.02	1.144
366.22	1.142
366.43	1.160
366.63	1.150
366.84	1.126
367.05	1.123
367.25	1.088
367.46	1.093
367.66	1.096
367.87	1.136
368.08	1.094
368.28	1.099
368.49	1.099
368.69	1.068
368.90	1.050
369.11	1.080
369.31	1.085
369.52	1.152
369.72	1.176
369.93	1.144
370.14	1.120
370.34	1.111
370.55	1.087
370.75	1.096
370.96	1.087
371.17	1.111
371.37	1.078
371.58	1.078
371.78	1.045
371.99	1.046
372.20	1.050
372.40	1.031
372.61	1.012
372.81	1.025
373.02	1.027
373.23	1.061
373.43	1.038
373.64	1.049
373.84	1.040
374.05	1.060
374.25	1.033
374.46	1.016
374.67	1.057
374.87	1.109
375.08	1.098
375.28	1.072
375.49	1.044
375.69	1.048
375.90	1.052
376.11	1.040
376.31	1.006
376.52	1.045
376.72	1.040
376.93	1.002
377.13	0.983
377.34	0.988
377.55	1.019
377.75	1.049
377.96	1.026
378.16	1.018
378.37	1.049
378.57	1.075
378.78	1.059
378.98	1.089
379.19	1.112
379.40	1.079
379.60	1.063
379.81	1.078
380.01	1.037
380.22	1.048
380.42	1.054
380.63	1.044
380.83	1.004
381.04	0.997
381.24	0.969
381.45	0.939
381.66	0.963
381.86	0.975
382.07	0.940
382.27	0.978
382.48	0.987
382.68	0.994
382.89	0.981
383.09	1.029
383.30	1.034
383.50	1.054
383.71	1.039
383.91	1.035
384.12	1.059
384.32	1.067
384.53	1.041
384.73	1.043
384.94	1.055
385.15	1.063
385.35	1.050
385.56	1.055
385.76	1.028
385.97	1.064
386.17	1.086
386.38	1.076
386.58	1.067
386.79	1.106
386.99	1.099
387.20	1.069
387.40	1.057
387.61	1.050
387.81	1.036
388.02	1.064
388.22	1.044
388.43	1.020
388.63	1.008
388.84	1.032
389.04	1.020
389.25	1.020
389.45	1.013
389.66	1.033
389.86	1.040
390.07	1.068
390.27	1.062
390.48	1.077
390.68	1.087
390.89	1.103
391.09	1.108
391.30	1.113
391.50	1.136
391.71	1.159
391.91	1.155
392.12	1.178
392.32	1.157
392.53	1.161
392.73	1.174
392.94	1.160
393.14	1.154
393.35	1.159
393.55	1.141
393.75	1.133
393.96	1.116
394.16	1.116
394.37	1.096
394.57	1.110
394.78	1.111
394.98	1.084
395.19	1.075
395.39	1.064
395.60	1.024
395.80	1.036
396.01	1.024
396.21	1.035
396.42	1.028
396.62	1.028
396.83	0.998
397.03	1.017
397.23	1.026
397.44	1.060
397.64	1.072
397.85	1.089
398.05	1.104
398.26	1.120
398.46	1.118
398.67	1.136
398.87	1.118
399.08	1.123
399.28	1.108
399.48	1.106
399.69	1.095
399.89	1.102
400.10	1.104
400.30	1.082
400.51	1.064
400.71	1.078
400.92	1.061
401.12	1.087
401.32	1.081
401.53	1.081
401.73	1.072
401.94	1.083
402.14	1.082
402.35	1.086
402.55	1.086
402.75	1.097
402.96	1.091
403.16	1.099
403.37	1.091
403.57	1.113
403.78	1.107
403.98	1.116
404.18	1.106
404.39	1.087
404.59	1.077
404.80	1.080
405.00	1.070
405.21	1.079
405.41	1.068
405.61	1.069
405.82	1.067
406.02	1.078
406.23	1.077
406.43	1.092
406.63	1.108
406.84	1.128
407.04	1.136
407.25	1.155
407.45	1.158
407.65	1.166
407.86	1.155
408.06	1.152
408.27	1.148
408.47	1.172
408.67	1.154
408.88	1.146
409.08	1.131
409.29	1.122
409.49	1.119
409.69	1.100
409.90	1.107
410.10	1.104
410.31	1.095
410.51	1.098
410.71	1.064
410.92	1.055
411.12	1.050
411.33	1.058
411.53	1.068
411.73	1.049
411.94	1.075
412.14	1.074
412.34	1.105
412.55	1.140
412.75	1.135
412.96	1.150
413.16	1.167
413.36	1.181
413.57	1.167
413.77	1.144
413.97	1.180
414.18	1.166
414.38	1.163
414.59	1.157
414.79	1.120
414.99	1.120
415.20	1.119
415.40	1.122
415.60	1.114
415.81	1.130
416.01	1.138
416.21	1.123
416.42	1.140
416.62	1.154
416.83	1.138
417.03	1.148
417.23	1.144
417.44	1.142
417.64	1.126
417.84	1.141
418.05	1.139
418.25	1.141
418.45	1.135
418.66	1.129
418.86	1.109
419.06	1.130
419.27	1.130
419.47	1.137
419.67	1.142
419.88	1.151
420.08	1.134
420.28	1.133
420.49	1.141
420.69	1.141
420.89	1.135
421.10	1.148
421.30	1.136
421.50	1.138
421.71	1.133
421.91	1.136
422.11	1.138
422.32	1.162
422.52	1.146
422.72	1.151
422.93	1.162
423.13	1.173
423.33	1.182
423.54	1.184
423.74	1.184
423.94	1.187
424.15	1.181
424.35	1.190
424.55	1.183
424.76	1.201
424.96	1.194
425.16	1.191
425.36	1.184
425.57	1.176
425.77	1.172
425.97	1.185
426.18	1.189
426.38	1.188
426.58	1.166
426.79	1.158
426.99	1.146
427.19	1.155
427.39	1.155
427.60	1.151
427.80	1.155
428.00	1.159
428.21	1.139
428.41	1.139
428.61	1.146
428.82	1.153
429.02	1.150
429.22	1.177
429.42	1.173
429.63	1.173
429.83	1.183
430.03	1.187
430.24	1.198
430.44	1.216
430.64	1.216
430.84	1.204
431.05	1.205
431.25	1.215
431.45	1.199
431.65	1.186
431.86	1.192
432.06	1.199
432.26	1.202
432.47	1.203
432.67	1.197
432.87	1.196
433.07	1.214
433.28	1.225
433.48	1.222
433.68	1.230
433.88	1.248
434.09	1.246
434.29	1.240
434.49	1.238
434.69	1.230
434.90	1.230
435.10	1.221
435.30	1.219
435.51	1.218
435.71	1.207
435.91	1.210
436.11	1.193
436.32	1.182
436.52	1.181
436.72	1.181
436.92	1.179
437.13	1.185
437.33	1.201
437.53	1.191
437.73	1.180
437.93	1.188
438.14	1.184
438.34	1.184
438.54	1.200
438.74	1.209
438.95	1.207
439.15	1.219
439.35	1.220
439.55	1.219
439.76	1.239
439.96	1.257
440.16	1.265
440.36	1.262
440.56	1.267
440.77	1.248
440.97	1.230
441.17	1.216
441.37	1.204
441.58	1.203
441.78	1.220
441.98	1.206
442.18	1.200
442.38	1.189
442.59	1.197
442.79	1.191
442.99	1.228
443.19	1.236
443.40	1.251
443.60	1.264
443.80	1.258
444.00	1.243
444.20	1.245
444.41	1.231
444.61	1.250
444.81	1.259
445.01	1.267
445.21	1.245
445.42	1.261
445.62	1.263
445.82	1.259
446.02	1.267
446.22	1.261
446.43	1.262
446.63	1.266
446.83	1.256
447.03	1.247
447.23	1.243
447.44	1.251
447.64	1.241
447.84	1.236
448.04	1.236
448.24	1.227
448.44	1.229
448.65	1.222
448.85	1.223
449.05	1.234
449.25	1.232
449.45	1.241
449.65	1.246
449.86	1.259
450.06	1.267
450.26	1.279
450.46	1.284
450.66	1.289
450.87	1.294
451.07	1.309
451.27	1.289
451.47	1.287
451.67	1.293
451.87	1.290
452.08	1.279
452.28	1.279
452.48	1.275
452.68	1.279
452.88	1.274
453.08	1.274
453.28	1.267
453.49	1.285
453.69	1.306
453.89	1.298
454.09	1.294
454.29	1.310
454.49	1.314
454.70	1.306
454.90	1.292
455.10	1.308
455.30	1.304
455.50	1.311
455.70	1.304
455.90	1.297
456.11	1.296
456.31	1.289
456.51	1.279
456.71	1.286
456.91	1.298
457.11	1.322
457.31	1.303
457.51	1.319
457.72	1.316
457.92	1.317
458.12	1.305
458.32	1.319
458.52	1.331
458.72	1.348
458.92	1.331
459.12	1.331
459.33	1.319
459.53	1.332
459.73	1.343
459.93	1.345
460.13	1.352
460.33	1.363
460.53	1.356
460.73	1.353
460.93	1.340
461.14	1.355
461.34	1.361
461.54	1.374
461.74	1.376
461.94	1.360
462.14	1.359
462.34	1.357
462.54	1.353
462.74	1.347
462.95	1.346
463.15	1.357
463.35	1.341
463.55	1.340
463.75	1.333
463.95	1.332
464.15	1.337
464.35	1.346
464.55	1.336
464.75	1.337
464.95	1.356
465.16	1.365
465.36	1.358
465.56	1.372
465.76	1.379
465.96	1.393
466.16	1.403
466.36	1.397
466.56	1.390
466.76	1.396
466.96	1.397
467.16	1.389
467.36	1.376
467.57	1.375
467.77	1.373
467.97	1.371
468.17	1.361
468.37	1.346
468.57	1.360
468.77	1.365
468.97	1.367
469.17	1.367
469.37	1.365
469.57	1.376
469.77	1.384
469.97	1.382
470.17	1.384
470.37	1.391
470.57	1.396
470.78	1.386
470.98	1.396
471.18	1.393
471.38	1.396
471.58	1.408
471.78	1.420
471.98	1.424
472.18	1.436
472.38	1.437
472.58	1.441
472.78	1.458
472.98	1.465
473.18	1.468
473.38	1.471
473.58	1.480
473.78	1.478
473.98	1.475
474.18	1.484
474.38	1.481
474.58	1.485
474.78	1.488
474.98	1.478
475.18	1.481
475.38	1.469
475.58	1.486
475.79	1.476
475.99	1.476
476.19	1.476
476.39	1.463
476.59	1.465
476.79	1.463
476.99	1.458
477.19	1.463
477.39	1.459
477.59	1.471
477.79	1.461
477.99	1.462
478.19	1.457
478.39	1.459
478.59	1.468
478.79	1.470
478.99	1.477
479.19	1.491
479.39	1.501
479.59	1.518
479.79	1.506
479.99	1.519
480.19	1.527
480.39	1.541
480.59	1.542
480.79	1.552
480.99	1.551
481.19	1.553
481.39	1.545
481.59	1.545
481.79	1.543
481.99	1.559
482.19	1.565
482.39	1.578
482.59	1.587
482.79	1.597
482.99	1.603
483.19	1.624
483.39	1.656
483.59	1.677
483.79	1.682
483.99	1.677
484.19	1.670
484.39	1.670
484.58	1.671
484.78	1.671
484.98	1.672
485.18	1.671
485.38	1.668
485.58	1.644
485.78	1.621
485.98	1.612
486.18	1.614
486.38	1.626
486.58	1.629
486.78	1.630
486.98	1.637
487.18	1.651
487.38	1.660
487.58	1.661
487.78	1.664
487.98	1.671
488.18	1.676
488.38	1.678
488.58	1.675
488.78	1.674
488.98	1.674
489.18	1.671
489.37	1.660
489.57	1.661
489.77	1.659
489.97	1.664
490.17	1.664
490.37	1.668
490.57	1.670
490.77	1.683
490.97	1.688
491.17	1.692
491.37	1.700
491.57	1.710
491.77	1.711
491.97	1.716
492.17	1.719
492.37	1.727
492.56	1.725
492.76	1.730
492.96	1.731
493.16	1.733
493.36	1.735
493.56	1.735
493.76	1.729
493.96	1.733
494.16	1.730
494.36	1.731
494.56	1.722
494.76	1.728
494.95	1.732
495.15	1.727
495.35	1.738
495.55	1.748
495.75	1.739
495.95	1.749
496.15	1.756
496.35	1.766
496.55	1.769
496.75	1.776
496.95	1.782
497.14	1.789
497.34	1.799
497.54	1.803
497.74	1.805
497.94	1.811
498.14	1.814
498.34	1.813
498.54	1.811
498.74	1.815
498.93	1.824
499.13	1.817
499.33	1.823
499.53	1.827
499.73	1.832
499.93	1.844
500.13	1.857
500.33	1.861
500.53	1.861
500.72	1.870
500.92	1.874
501.12	1.878
501.32	1.887
501.52	1.884
501.72	1.880
501.92	1.869
502.12	1.860
502.31	1.859
502.51	1.860
502.71	1.871
502.91	1.865
503.11	1.870
503.31	1.882
503.51	1.886
503.70	1.895
503.90	1.906
504.10	1.916
504.30	1.920
504.50	1.933
504.70	1.936
504.90	1.930
505.09	1.943
505.29	1.945
505.49	1.941
505.69	1.957
505.89	1.963
506.09	1.954
506.29	1.962
506.48	1.961
506.68	1.960
506.88	1.973
507.08	1.985
507.28	1.998
507.48	2.010
507.67	2.009
507.87	2.010
508.07	2.009
508.27	2.026
508.47	2.023
508.67	2.039
508.86	2.047
509.06	2.041
509.26	2.048
509.46	2.054
509.66	2.056
509.85	2.067
510.05	2.065
510.25	2.068
510.45	2.069
510.65	2.080
510.85	2.071
511.04	2.075
511.24	2.086
511.44	2.090
511.64	2.081
511.84	2.089
512.03	2.086
512.23	2.102
512.43	2.099
512.63	2.105
512.83	2.117
513.02	2.133
513.22	2.138
513.42	2.149
513.62	2.161
513.82	2.174
514.01	2.186
514.21	2.197
514.41	2.197
514.61	2.214
514.81	2.214
515.00	2.202
515.20	2.205
515.40	2.206
515.60	2.196
515.80	2.191
515.99	2.189
516.19	2.180
516.39	2.189
516.59	2.201
516.78	2.203
516.98	2.221
517.18	2.232
517.38	2.233
517.58	2.237
517.77	2.249
517.97	2.253
518.17	2.264
518.37	2.274
518.56	2.279
518.76	2.283
518.96	2.291
519.16	2.288
519.36	2.293
519.55	2.303
519.75	2.309
519.95	2.319
520.15	2.325
520.34	2.330
520.54	2.333
520.74	2.334
520.94	2.330
521.13	2.340
521.33	2.344
521.53	2.350
521.73	2.360
521.92	2.361
522.12	2.367
522.32	2.379
522.52	2.387
522.71	2.397
522.91	2.407
523.11	2.414
523.31	2.409
523.50	2.414
523.70	2.426
523.90	2.425
524.09	2.434
524.29	2.438
524.49	2.441
524.69	2.445
524.88	2.457
525.08	2.463
525.28	2.469
525.48	2.480
525.67	2.482
525.87	2.487
526.07	2.488
526.26	2.496
526.46	2.501
526.66	2.503
526.86	2.512
527.05	2.513
527.25	2.523
527.45	2.531
527.64	2.540
527.84	2.553
528.04	2.568
528.24	2.589
528.43	2.602
528.63	2.611
528.83	2.615
529.02	2.616
529.22	2.617
529.42	2.616
529.62	2.621
529.81	2.626
530.01	2.628
530.21	2.621
530.40	2.615
530.60	2.609
530.80	2.605
530.99	2.612
531.19	2.612
531.39	2.617
531.58	2.625
531.78	2.631
531.98	2.628
532.18	2.636
532.37	2.651
532.57	2.657
532.77	2.667
532.96	2.676
533.16	2.687
533.36	2.701
533.55	2.706
533.75	2.708
533.95	2.715
534.14	2.718
534.34	2.729
534.54	2.735
534.73	2.746
534.93	2.752
535.13	2.756
535.32	2.747
535.52	2.753
535.72	2.763
535.91	2.777
536.11	2.779
536.31	2.793
536.50	2.802
536.70	2.809
536.90	2.806
537.09	2.815
537.29	2.825
537.48	2.842
537.68	2.839
537.88	2.838
538.07	2.840
538.27	2.848
538.47	2.854
538.66	2.852
538.86	2.853
539.06	2.858
539.25	2.867
539.45	2.874
539.65	2.884
539.84	2.909
540.04	2.919
540.23	2.934
540.43	2.951
540.63	2.959
540.82	2.971
541.02	2.976
541.22	2.986
541.41	2.986
541.61	2.982
541.80	2.980
542.00	2.974
542.20	2.976
542.39	2.976
542.59	2.978
542.79	2.980
542.98	2.979
543.18	2.983
543.37	2.991
543.57	2.991
543.77	3.004
543.96	3.003
544.16	3.008
544.35	3.020
544.55	3.033
544.75	3.027
544.94	3.038
545.14	3.041
545.33	3.053
545.53	3.058
545.73	3.069
545.92	3.076
546.12	3.088
546.31	3.099
546.51	3.099
546.71	3.095
546.90	3.107
547.10	3.109
547.29	3.118
547.49	3.124
547.69	3.129
547.88	3.133
548.08	3.135
548.27	3.142
548.47	3.149
548.66	3.156
548.86	3.162
549.06	3.164
549.25	3.184
549.45	3.198
549.64	3.191
549.84	3.202
550.03	3.214
550.23	3.231
550.43	3.235
550.62	3.241
550.82	3.259
551.01	3.262
551.21	3.278
551.40	3.281
551.60	3.286
551.80	3.302
551.99	3.306
552.19	3.307
552.38	3.309
552.58	3.317
552.77	3.321
552.97	3.320
553.16	3.318
553.36	3.321
553.56	3.319
553.75	3.317
553.95	3.321
554.14	3.322
554.34	3.340
554.53	3.337
554.73	3.356
554.92	3.366
555.12	3.366
555.31	3.391
555.51	3.407
555.70	3.408
555.90	3.420
556.10	3.424
556.29	3.431
556.49	3.423
556.68	3.434
556.88	3.432
557.07	3.438
557.27	3.461
557.46	3.457
557.66	3.459
557.85	3.474
558.05	3.467
558.24	3.475
558.44	3.486
558.63	3.492
558.83	3.478
559.02	3.497
559.22	3.489
559.41	3.495
559.61	3.498
559.80	3.505
560.00	3.496
560.19	3.515
560.39	3.507
560.58	3.513
560.78	3.529
560.97	3.562
561.17	3.560
561.36	3.577
561.56	3.579
561.75	3.587
561.95	3.600
562.14	3.615
562.34	3.619
562.53	3.636
562.73	3.633
562.92	3.639
563.12	3.643
563.31	3.631
563.51	3.638
563.70	3.640
563.90	3.655
564.09	3.657
564.29	3.661
564.48	3.671
564.68	3.690
564.87	3.711
565.07	3.707
565.26	3.713
565.45	3.736
565.65	3.751
565.84	3.772
566.04	3.775
566.23	3.773
566.43	3.785
566.62	3.789
566.82	3.789
567.01	3.780
567.21	3.797
567.40	3.797
567.60	3.800
567.79	3.789
567.98	3.792
568.18	3.809
568.37	3.817
568.57	3.816
568.76	3.823
568.96	3.819
569.15	3.842
569.35	3.851
569.54	3.859
569.73	3.861
569.93	3.880
570.12	3.870
570.32	3.863
570.51	3.868
570.71	3.889
570.90	3.898
571.09	3.920
571.29	3.929
571.48	3.939
571.68	3.948
571.87	3.955
572.07	3.966
572.26	3.980
572.45	3.990
572.65	4.010
572.84	4.003
573.04	4.008
573.23	4.002
573.43	4.005
573.62	4.005
573.81	4.012
574.01	4.031
574.20	4.020
574.40	4.026
574.59	4.031
574.78	4.024
574.98	4.043
575.17	4.043
575.37	4.055
575.56	4.060
575.75	4.062
575.95	4.067
576.14	4.067
576.34	4.068
576.53	4.076
576.72	4.083
576.92	4.097
577.11	4.103
577.31	4.124
577.50	4.122
577.69	4.138
577.89	4.154
578.08	4.156
578.28	4.155
578.47	4.184
578.66	4.188
578.86	4.207
579.05	4.214
579.24	4.219
579.44	4.209
579.63	4.222
579.83	4.218
580.02	4.224
580.21	4.237
580.41	4.253
580.60	4.249
580.79	4.259
580.99	4.261
581.18	4.269
581.38	4.274
581.57	4.296
581.76	4.299
581.96	4.316
582.15	4.321
582.34	4.327
582.54	4.333
582.73	4.346
582.92	4.347
583.12	4.353
583.31	4.355
583.50	4.346
583.70	4.346
583.89	4.361
584.08	4.348
584.28	4.352
584.47	4.354
584.66	4.362
584.86	4.367
585.05	4.377
585.24	4.376
585.44	4.379
585.63	4.399
585.82	4.415
586.02	4.419
586.21	4.439
586.40	4.431
586.60	4.443
586.79	4.448
586.98	4.448
587.18	4.458
587.37	4.461
587.56	4.464
587.76	4.475
587.95	4.485
588.14	4.493
588.34	4.484
588.53	4.512
588.72	4.514
588.92	4.525
589.11	4.559
589.30	4.562
589.50	4.587
589.69	4.614
589.88	4.606
590.07	4.592
590.27	4.609
590.46	4.632
590.65	4.632
590.85	4.642
591.04	4.638
591.23	4.621
591.43	4.625
591.62	4.624
591.81	4.614
592.00	4.623
592.20	4.647
592.39	4.650
592.58	4.655
592.78	4.665
592.97	4.671
593.16	4.675
593.35	4.690
593.55	4.685
593.74	4.682
593.93	4.705
594.13	4.725
594.32	4.730
594.51	4.744
594.70	4.744
594.90	4.747
595.09	4.749
595.28	4.771
595.47	4.769
595.67	4.795
595.86	4.796
596.05	4.790
596.24	4.810
596.44	4.817
596.63	4.814
596.82	4.815
597.02	4.818
597.21	4.833
597.40	4.843
597.59	4.848
597.79	4.830
597.98	4.839
598.17	4.852
598.36	4.837
598.56	4.845
598.75	4.837
598.94	4.855
599.13	4.861
599.32	4.868
599.52	4.865
599.71	4.892
599.90	4.919
600.09	4.936
600.29	4.940
600.48	4.951
600.67	4.940
600.86	4.963
601.06	4.958
601.25	4.981
601.44	4.977
601.63	4.981
601.82	4.979
602.02	4.996
602.21	5.000
602.40	5.006
602.59	5.019
602.79	5.046
602.98	5.052
603.17	5.063
603.36	5.065
603.55	5.074
603.75	5.074
603.94	5.085
604.13	5.084
604.32	5.094
604.51	5.089
604.71	5.098
604.90	5.097
605.09	5.110
605.28	5.102
605.47	5.108
605.67	5.113
605.86	5.131
606.05	5.136
606.24	5.136
606.43	5.144
606.63	5.161
606.82	5.155
607.01	5.160
607.20	5.156
607.39	5.173
607.59	5.162
607.78	5.183
607.97	5.171
608.16	5.156
608.35	5.175
608.54	5.171
608.74	5.181
608.93	5.207
609.12	5.210
609.31	5.215
609.50	5.245
609.69	5.278
609.89	5.268
610.08	5.285
610.27	5.302
610.46	5.317
610.65	5.330
610.84	5.334
611.04	5.331
611.23	5.336
611.42	5.349
611.61	5.333
611.80	5.337
611.99	5.351
612.19	5.357
612.38	5.366
612.57	5.359
612.76	5.369
612.95	5.390
613.14	5.397
613.33	5.409
613.53	5.434
613.72	5.457
613.91	5.434
614.10	5.454
614.29	5.463
614.48	5.464
614.67	5.472
614.86	5.479
615.06	5.461
615.25	5.472
615.44	5.492
615.63	5.480
615.82	5.487
616.01	5.499
616.20	5.495
616.39	5.498
616.59	5.502
616.78	5.519
616.97	5.526
617.16	5.560
617.35	5.568
617.54	5.554
617.73	5.560
617.92	5.561
618.12	5.581
618.31	5.580
618.50	5.598
618.69	5.616
618.88	5.619
619.07	5.624
619.26	5.621
619.45	5.620
619.64	5.641
619.83	5.664
620.03	5.686
620.22	5.685
620.41	5.712
620.60	5.705
620.79	5.721
620.98	5.712
621.17	5.725
621.36	5.727
621.55	5.747
621.74	5.765
621.93	5.764
622.12	5.761
622.32	5.769
622.51	5.760
622.70	5.785
622.89	5.762
623.08	5.786
623.27	5.792
623.46	5.795
623.65	5.788
623.84	5.776
624.03	5.787
624.22	5.799
624.41	5.819
624.60	5.834
624.79	5.838
624.99	5.864
625.18	5.874
625.37	5.891
625.56	5.901
625.75	5.918
625.94	5.949
626.13	5.952
626.32	5.943
626.51	5.947
626.70	5.959
626.89	5.949
627.08	5.969
627.27	5.974
627.46	5.963
627.65	5.969
627.84	5.982
628.03	5.969
628.22	5.969
628.41	5.994
628.60	5.995
628.79	6.005
628.98	6.019
629.17	5.998
629.37	6.017
629.56	6.017
629.75	6.032
629.94	6.026
630.13	6.042
630.32	6.050
630.51	6.042
630.70	6.050
630.89	6.039
631.08	6.068
631.27	6.081
631.46	6.096
631.65	6.119
631.84	6.115
632.03	6.113
632.22	6.118
632.41	6.125
632.60	6.147
632.79	6.148
632.98	6.175
633.17	6.161
633.36	6.184
633.55	6.183
633.74	6.192
633.93	6.209
634.12	6.217
634.31	6.224
634.50	6.235
634.69	6.244
634.88	6.262
635.07	6.264
635.26	6.260
635.45	6.250
635.64	6.242
635.83	6.256
636.02	6.259
636.21	6.281
636.40	6.289
636.59	6.292
636.78	6.271
636.96	6.262
637.15	6.259
637.34	6.273
637.53	6.287
637.72	6.286
637.91	6.274
638.10	6.276
638.29	6.297
638.48	6.296
638.67	6.293
638.86	6.311
639.05	6.343
639.24	6.349
639.43	6.382
639.62	6.386
639.81	6.409
640.00	6.412
640.19	6.433
640.38	6.418
640.57	6.418
640.76	6.427
640.95	6.418
641.14	6.403
641.32	6.418
641.51	6.408
641.70	6.428
641.89	6.441
642.08	6.460
642.27	6.463
642.46	6.478
642.65	6.481
642.84	6.504
643.03	6.528
643.22	6.528
643.41	6.553
643.60	6.562
643.79	6.566
643.98	6.548
644.16	6.553
644.35	6.549
644.54	6.551
644.73	6.584
644.92	6.600
645.11	6.597
645.30	6.622
645.49	6.619
645.68	6.612
645.87	6.607
646.06	6.639
646.24	6.640
646.43	6.642
646.62	6.639
646.81	6.649
647.00	6.618
647.19	6.646
647.38	6.657
647.57	6.647
647.76	6.667
647.95	6.684
648.13	6.665
648.32	6.686
648.51	6.711
648.70	6.711
648.89	6.709
649.08	6.731
649.27	6.731
649.46	6.744
649.65	6.750
649.83	6.747
650.02	6.739
650.21	6.774
650.40	6.761
650.59	6.759
650.78	6.785
650.97	6.789
651.16	6.811
651.34	6.814
651.53	6.793
651.72	6.806
651.91	6.807
652.10	6.817
652.29	6.831
652.48	6.862
652.66	6.886
652.85	6.909
653.04	6.925
653.23	6.917
653.42	6.928
653.61	6.943
653.80	6.939
653.98	6.951
654.17	6.946
654.36	6.941
654.55	6.922
654.74	6.940
654.93	6.942
655.11	6.936
655.30	6.938
655.49	6.944
655.68	6.964
655.87	6.991
656.06	7.006
656.24	7.034
656.43	7.028
656.62	7.046
656.81	7.024
657.00	7.027
657.19	7.037
657.37	7.060
657.56	7.064
657.75	7.027
657.94	7.027
658.13	7.031
658.31	7.032
658.50	7.061
658.69	7.060
658.88	7.066
659.07	7.072
659.26	7.069
659.44	7.059
659.63	7.079
659.82	7.134
660.01	7.154
660.20	7.165
660.38	7.198
660.57	7.202
660.76	7.221
660.95	7.241
661.14	7.243
661.32	7.268
661.51	7.292
661.70	7.284
661.89	7.278
662.08	7.283
662.26	7.290
662.45	7.266
662.64	7.259
662.83	7.274
663.01	7.267
663.20	7.271
663.39	7.264
663.58	7.266
663.77	7.277
663.95	7.299
664.14	7.325
664.33	7.353
664.52	7.383
664.70	7.402
664.89	7.405
665.08	7.412
665.27	7.419
665.45	7.449
665.64	7.456
665.83	7.471
666.02	7.460
666.20	7.416
666.39	7.404
666.58	7.418
666.77	7.404
666.95	7.381
667.14	7.395
667.33	7.422
667.52	7.408
667.70	7.420
667.89	7.427
668.08	7.441
668.27	7.482
668.45	7.484
668.64	7.484
668.83	7.478
669.02	7.505
669.20	7.514
669.39	7.517
669.58	7.534
669.77	7.534
669.95	7.528
670.14	7.527
670.33	7.505
670.51	7.495
670.70	7.504
670.89	7.541
671.08	7.551
671.26	7.556
671.45	7.538
671.64	7.537
671.82	7.569
672.01	7.573
672.20	7.587
672.39	7.612
672.57	7.653
672.76	7.650
672.95	7.645
673.13	7.653
673.32	7.691
673.51	7.713
673.70	7.706
673.88	7.697
674.07	7.720
674.26	7.728
674.44	7.735
674.63	7.726
674.82	7.746
675.00	7.743
675.19	7.768
675.38	7.729
675.56	7.757
675.75	7.783
675.94	7.788
676.12	7.781
676.31	7.774
676.50	7.756
676.69	7.758
676.87	7.760
677.06	7.766
677.25	7.744
677.43	7.769
677.62	7.731
677.81	7.744
677.99	7.764
678.18	7.769
678.37	7.772
678.55	7.813
678.74	7.803
678.93	7.832
679.11	7.840
679.30	7.849
679.48	7.870
679.67	7.907
679.86	7.916
680.04	7.935
680.23	7.958
680.42	7.973
680.60	7.984
680.79	8.019
680.98	8.018
681.16	8.031
681.35	8.058
681.54	8.032
681.72	8.034
681.91	8.048
682.10	8.050
682.28	8.048
682.47	8.068
682.65	8.062
682.84	8.065
683.03	8.051
683.21	8.060
683.40	8.056
683.59	8.095
683.77	8.094
683.96	8.078
684.14	8.070
684.33	8.086
684.52	8.100
684.70	8.106
684.89	8.103
685.07	8.103
685.26	8.106
685.45	8.108
685.63	8.091
685.82	8.128
686.00	8.154
686.19	8.172
686.38	8.189
686.56	8.185
686.75	8.218
686.93	8.231
687.12	8.241
687.31	8.266
687.49	8.284
687.68	8.308
687.86	8.295
688.05	8.285
688.24	8.304
688.42	8.284
688.61	8.284
688.79	8.273
688.98	8.281
689.17	8.286
689.35	8.294
689.54	8.271
689.72	8.267
689.91	8.282
690.09	8.305
690.28	8.289
690.47	8.294
690.65	8.293
690.84	8.301
691.02	8.314
691.21	8.324
691.39	8.326
691.58	8.354
691.76	8.376
691.95	8.369
692.14	8.390
692.32	8.382
692.51	8.423
692.69	8.451
692.88	8.452
693.06	8.454
693.25	8.476
693.43	8.481
693.62	8.480
693.81	8.473
693.99	8.481
694.18	8.457
694.36	8.472
694.55	8.454
694.73	8.441
694.92	8.430
695.10	8.407
695.29	8.406
695.47	8.415
695.66	8.446
695.84	8.481
696.03	8.487
696.21	8.511
696.40	8.534
696.59	8.544
696.77	8.582
696.96	8.600
697.14	8.642
697.33	8.673
697.51	8.683
697.70	8.664
697.88	8.650
698.07	8.660
698.25	8.679
698.44	8.705
698.62	8.706
698.81	8.694
698.99	8.724
699.18	8.733
699.36	8.733
699.55	8.740
699.73	8.729
699.92	8.739
700.10	8.744
700.29	8.753
700.47	8.727
700.66	8.745
700.84	8.737
701.03	8.731
701.21	8.732
701.40	8.716
701.58	8.727
701.77	8.749
701.95	8.784
702.13	8.799
702.32	8.805
702.50	8.841
702.69	8.853
702.87	8.860
703.06	8.879
703.24	8.857
703.43	8.857
703.61	8.867
703.80	8.860
703.98	8.763
704.17	8.779
704.35	8.748
704.54	8.731
704.72	8.727
704.90	8.739
705.09	8.727
705.27	8.769
705.46	8.805
705.64	8.773
705.83	8.791
706.01	8.853
706.20	8.841
706.38	8.862
706.56	8.886
706.75	8.875
706.93	8.905
707.12	8.922
707.30	8.919
707.49	8.923
707.67	8.953
707.86	8.974
708.04	9.013
708.22	8.992
708.41	9.011
708.59	9.013
708.78	9.012
708.96	9.018
709.14	9.041
709.33	9.068
709.51	9.062
709.70	9.083
709.88	9.103
710.07	9.102
710.25	9.171
710.43	9.179
710.62	9.213
710.80	9.247
710.99	9.280
711.17	9.272
711.35	9.273
711.54	9.291
711.72	9.297
711.91	9.337
712.09	9.333
712.27	9.302
712.46	9.307
712.64	9.310
712.83	9.324
713.01	9.316
713.19	9.319
713.38	9.317
713.56	9.329
713.75	9.328
713.93	9.289
714.11	9.287
714.30	9.311
714.48	9.315
714.66	9.305
714.85	9.290
715.03	9.299
715.22	9.300
715.40	9.322
715.58	9.331
715.77	9.369
715.95	9.420
716.13	9.416
716.32	9.400
716.50	9.389
716.68	9.399
716.87	9.425
717.05	9.431
717.24	9.433
717.42	9.415
717.60	9.401
717.79	9.366
717.97	9.346
718.15	9.368
718.34	9.429
718.52	9.475
718.70	9.462
718.89	9.453
719.07	9.450
719.25	9.476
719.44	9.471
719.62	9.462
719.80	9.479
719.99	9.463
720.17	9.485
720.35	9.465
720.54	9.432
720.72	9.457
720.90	9.456
721.09	9.466
721.27	9.463
721.45	9.491
721.64	9.510
721.82	9.514
722.00	9.521
722.19	9.515
722.37	9.475
722.55	9.506
722.74	9.505
722.92	9.510
723.10	9.502
723.28	9.539
723.47	9.556
723.65	9.604
723.83	9.629
724.02	9.641
724.20	9.661
724.38	9.678
724.57	9.634
724.75	9.677
724.93	9.667
725.11	9.691
725.30	9.629
725.48	9.647
725.66	9.621
725.85	9.637
726.03	9.605
726.21	9.623
726.39	9.638
726.58	9.715
726.76	9.720
726.94	9.783
727.13	9.760
727.31	9.844
727.49	9.840
727.67	9.843
727.86	9.833
728.04	9.894
728.22	9.868
728.40	9.936
728.59	9.935
728.77	9.909
728.95	9.888
729.13	9.912
729.32	9.880
729.50	9.905
729.68	9.952
729.86	9.958
730.05	9.980
730.23	9.990
730.41	9.969
730.59	9.958
730.78	9.969
730.96	9.973
731.14	9.988
731.32	9.991
731.51	9.963
731.69	9.980
731.87	9.956
732.05	9.969
732.24	10.023
732.42	10.027
732.60	10.014
732.78	10.024
732.97	10.050
733.15	10.053
733.33	10.088
733.51	10.128
733.69	10.101
733.88	10.120
734.06	10.099
734.24	10.062
734.42	10.065
734.60	10.128
734.79	10.143
734.97	10.163
735.15	10.152
735.33	10.130
735.52	10.105
735.70	10.127
735.88	10.146
736.06	10.186
736.24	10.198
736.43	10.196
736.61	10.205
736.79	10.222
736.97	10.191
737.15	10.202
737.34	10.197
737.52	10.208
737.70	10.199
737.88	10.243
738.06	10.207
738.24	10.276
738.43	10.290
738.61	10.249
738.79	10.255
738.97	10.313
739.15	10.338
739.33	10.347
739.52	10.345
739.70	10.329
739.88	10.312
740.06	10.328
740.24	10.239
740.42	10.248
740.61	10.271
740.79	10.296
740.97	10.240
741.15	10.277
741.33	10.313
741.51	10.315
741.70	10.341
741.88	10.386
742.06	10.403
742.24	10.478
742.42	10.446
742.60	10.446
742.78	10.425
742.97	10.472
743.15	10.457
743.33	10.449
743.51	10.483
743.69	10.517
743.87	10.473
744.05	10.473
744.24	10.475
744.42	10.516
744.60	10.563
744.78	10.577
744.96	10.580
745.14	10.586
745.32	10.580
745.50	10.562
745.69	10.543
745.87	10.549
746.05	10.554
746.23	10.590
746.41	10.597
746.59	10.509
746.77	10.481
746.95	10.445
747.13	10.401
747.32	10.413
747.50	10.443
747.68	10.467
747.86	10.504
748.04	10.509
748.22	10.468
748.40	10.501
748.58	10.540
748.76	10.577
748.94	10.628
749.13	10.679
749.31	10.707
749.49	10.711
749.67	10.716
749.85	10.731
750.03	10.683
750.21	10.715
750.39	10.720
750.57	10.770
750.75	10.772
750.93	10.750
751.11	10.774
751.30	10.785
751.48	10.840
751.66	10.851
751.84	10.838
752.02	10.914
752.20	10.902
752.38	10.869
752.56	10.850
752.74	10.867
752.92	10.867
753.10	10.883
753.28	10.883
753.46	10.861
753.64	10.849
753.82	10.862
754.00	10.809
754.18	10.787
754.37	10.818
754.55	10.861
754.73	10.829
754.91	10.855
755.09	10.803
755.27	10.822
755.45	10.802
755.63	10.790
755.81	10.779
755.99	10.807
756.17	10.781
756.35	10.810
756.53	10.765
756.71	10.756
756.89	10.749
757.07	10.788
757.25	10.754
757.43	10.780
757.61	10.758
757.79	10.746
757.97	10.752
758.15	10.849
758.33	10.905
758.51	10.939
758.69	10.964
758.87	10.985
759.05	11.001
759.23	11.042
759.41	11.064
759.59	11.141
759.77	11.177
759.95	11.212
760.13	11.219
760.31	11.154
760.49	11.149
760.67	11.209
760.85	11.278
761.03	11.316
761.21	11.328
761.39	11.335
761.57	11.342
761.75	11.402
761.93	11.380
762.11	11.400
762.29	11.388
762.47	11.448
762.65	11.411
762.83	11.366
763.01	11.366
763.19	11.354
763.37	11.395
763.55	11.474
763.73	11.539
763.91	11.620
764.09	11.645
764.27	11.720
764.45	11.748
764.63	11.783
764.81	11.810
764.99	11.824
765.16	11.822
765.34	11.827
765.52	11.803
765.70	11.764
765.88	11.768
766.06	11.762
766.24	11.728
766.42	11.683
766.60	11.680
766.78	11.641
766.96	11.630
767.14	11.663
767.32	11.652
767.50	11.604
767.68	11.592
767.86	11.535
768.03	11.529
768.21	11.528
768.39	11.500
768.57	11.470
768.75	11.517
768.93	11.531
769.11	11.539
769.29	11.542
769.47	11.538
769.65	11.538
769.83	11.584
770.01	11.596
770.19	11.649
770.36	11.712
770.54	11.771
770.72	11.739
770.90	11.730
771.08	11.751
771.26	11.759
771.44	11.837
771.62	11.865
771.80	11.836
771.98	11.771
772.15	11.754
772.33	11.726
772.51	11.703
772.69	11.734
772.87	11.694
773.05	11.620
773.23	11.613
773.41	11.604
773.58	11.571
773.76	11.639
773.94	11.647
774.12	11.607
774.30	11.634
774.48	11.581
774.66	11.563
774.84	11.538
775.01	11.606
775.19	11.590
775.37	11.626
775.55	11.592
775.73	11.583
775.91	11.621
776.09	11.641
776.26	11.628
776.44	11.697
776.62	11.803
776.80	11.807
776.98	11.778
777.16	11.822
777.34	11.835
777.51	11.847
777.69	11.824
777.87	11.833
778.05	11.797
778.23	11.828
778.41	11.800
778.58	11.707
778.76	11.771
778.94	11.840
779.12	11.859
779.30	11.841
779.48	11.869
779.65	11.874
779.83	11.870
780.01	11.956
780.19	11.959
780.37	12.035
780.55	12.065
780.72	12.152
780.90	12.073
781.08	12.070
781.26	12.152
781.44	12.209
781.61	12.240
781.79	12.259
781.97	12.273
782.15	12.298
782.33	12.200
782.50	12.197
782.68	12.104
782.86	12.153
783.04	12.152
783.22	12.094
783.39	12.047
783.57	11.986
783.75	11.985
783.93	11.940
784.11	11.949
784.28	11.889
784.46	11.913
784.64	12.004
784.82	11.936
784.99	11.999
785.17	11.961
785.35	12.028
785.53	12.059
785.71	12.078
785.88	12.140
786.06	12.129
786.24	12.251
786.42	12.250
786.59	12.124
786.77	12.233
786.95	12.162
787.13	12.172
787.30	12.124
787.48	12.134
787.66	12.186
787.84	12.191
788.01	12.214
788.19	12.277
788.37	12.347
788.55	12.415
788.72	12.411
788.90	12.436
789.08	12.560
789.26	12.546
789.43	12.586
789.61	12.574
789.79	12.586
789.97	12.582
790.14	12.558
790.32	12.500
790.50	12.561
790.68	12.511
790.85	12.456
791.03	12.399
791.21	12.470
791.38	12.489
791.56	12.444
791.74	12.421
791.92	12.379
792.09	12.350
792.27	12.407
792.45	12.341
792.62	12.302
792.80	12.341
792.98	12.170
793.16	12.162
793.33	12.040
793.51	12.085
793.69	12.057
793.86	12.057
794.04	12.019
794.22	11.935
794.39	11.934
794.57	12.025
794.75	12.072
794.93	12.272
795.10	12.213
795.28	12.364
795.46	12.326
795.63	12.323
795.81	12.438
795.99	12.438
796.16	12.543
796.34	12.581
796.52	12.546
796.69	12.566
796.87	12.573
797.05	12.614
797.22	12.530
797.40	12.598
797.58	12.573
797.75	12.486
797.93	12.636
798.11	12.648
798.28	12.620
798.46	12.697
798.64	12.605
798.81	12.580
798.99	12.539
799.17	12.597
799.34	12.534
799.52	12.637
799.70	12.660
799.87	12.649
800.05	12.569
800.22	12.546
800.40	12.518
800.58	12.608
800.75	12.641
800.93	12.679
801.11	12.617
801.28	12.719
801.46	12.609
801.63	12.684
801.81	12.623
801.99	12.680
802.16	12.643
802.34	12.739
802.52	12.688
802.69	12.660
802.87	12.722
803.04	12.753
803.22	12.772
803.40	12.767
803.57	12.739
803.75	12.739
803.93	12.716
804.10	12.833
804.28	12.808
804.45	12.887
804.63	12.973
804.81	12.996
804.98	13.032
805.16	13.019
805.33	13.201
805.51	13.237
805.68	13.287
805.86	13.357
806.04	13.254
806.21	13.293
806.39	13.237
806.56	13.100
806.74	13.066
806.92	13.083
807.09	13.065
807.27	13.096
807.44	13.025
807.62	13.085
807.79	13.058
807.97	13.255
808.15	13.165
808.32	13.248
808.50	13.276
808.67	13.313
808.85	13.333
809.02	13.335
809.20	13.249
809.38	13.204
809.55	13.158
809.73	13.221
809.90	13.189
810.08	13.165
810.25	13.048
810.43	13.075
810.60	13.015
810.78	12.952
810.95	12.883
811.13	12.948
811.31	12.974
811.48	13.062
811.66	12.934
811.83	12.824
812.01	12.888
812.18	12.951
812.36	12.877
812.53	12.786
812.71	12.774
812.88	12.778
813.06	12.678
813.23	12.804
813.41	12.883
813.58	12.823
813.76	12.939
813.93	12.801
814.11	12.830
814.28	12.931
814.46	13.080
814.63	13.270
814.81	13.302
814.98	13.345
815.16	13.292
815.33	13.065
815.51	13.270
815.68	13.231
815.86	13.330
816.03	13.296
816.21	13.326
816.38	13.224
816.56	13.092
816.73	13.093
816.91	13.053
817.08	13.128
817.26	13.229
817.43	13.264
817.61	13.232
817.78	13.225
817.96	13.286
818.13	13.313
818.31	13.405
818.48	13.475
818.66	13.626
818.83	13.638
819.01	13.439
819.18	13.535
819.36	13.459
819.53	13.547
819.70	13.612
819.88	13.722
820.05	13.784
820.23	13.965
820.40	14.042
820.58	14.001
820.75	14.158
820.93	14.298
821.10	14.323
821.28	14.475
821.45	14.527
821.62	14.685
821.80	14.721
821.97	14.790
822.15	14.786
822.32	14.880
822.50	15.077
822.67	15.296
822.84	15.451
823.02	15.509
823.19	15.441
823.37	15.370
823.54	15.279
823.72	15.204
823.89	15.121
824.06	15.090
824.24	15.053
824.41	15.000
824.59	14.930
824.76	14.867
824.94	14.796
825.11	14.749
825.28	14.715
825.46	14.674
825.63	14.654
825.81	14.664
825.98	14.633
826.15	14.634
826.33	14.636
826.50	14.646
826.68	14.639
826.85	14.602
827.02	14.581
827.20	14.616
827.37	14.708
827.54	14.826
827.72	14.978
827.89	15.159
828.07	15.240
828.24	15.282
828.41	15.291
828.59	15.288
828.76	15.268
828.94	15.266
829.11	15.202
829.28	15.170
829.46	15.071
829.63	14.964
829.80	14.843
829.98	14.730
830.15	14.613
830.32	14.493
830.50	14.395
830.67	14.408
830.85	14.356
831.02	14.351
831.19	14.236
831.37	14.283
831.54	14.246
831.71	14.179
831.89	14.187
832.06	14.180
832.23	14.152
832.41	14.251
832.58	14.161
832.75	14.191
832.93	14.118
833.10	14.202
833.27	14.210
833.45	14.433
833.62	14.563
833.79	14.568
833.97	14.714
834.14	14.959
834.31	15.055
834.49	15.314
834.66	15.381
834.83	15.568
835.01	15.574
835.18	15.566
835.35	15.538
835.52	15.496
835.70	15.469
835.87	15.458
836.04	15.387
836.22	15.320
836.39	15.185
836.56	15.119
836.74	14.966
836.91	14.921
837.08	14.826
837.25	14.720
837.43	14.636
837.60	14.561
837.77	14.371
837.95	14.360
838.12	14.289
838.29	14.242
838.46	14.109
838.64	14.069
838.81	13.831
838.98	13.884
839.16	13.892
839.33	13.974
839.50	13.969
839.67	14.247
839.85	14.074
840.02	14.131
840.19	14.128
840.36	14.274
840.54	14.366
840.71	14.613
840.88	14.638
841.06	14.668
841.23	14.750
841.40	14.812
841.57	14.701
841.75	14.799
841.92	14.685
842.09	14.601
842.26	14.573
842.44	14.435
842.61	14.421
842.78	14.451
842.95	14.450
843.12	14.180
843.30	14.076
843.47	14.075
843.64	13.977
843.81	14.177
843.99	14.208
844.16	14.236
844.33	14.337
844.50	14.387
844.68	14.230
844.85	14.030
845.02	14.359
845.19	14.338
845.36	14.020
845.54	14.091
845.71	13.799
845.88	13.766
846.05	13.512
846.22	13.462
846.40	13.141
846.57	13.294
846.74	13.198
846.91	12.878
847.08	13.119
847.26	13.499
847.43	13.571
847.60	13.693
847.77	13.857
847.94	13.952
848.12	14.017
848.29	14.448
848.46	14.180
848.63	14.237
848.80	14.372
848.98	14.529
849.15	14.578
849.32	14.318
849.49	14.103
849.66	14.085
849.83	14.018
850.01	14.151
850.18	13.755
850.35	13.834
850.52	14.034
850.69	13.980
850.86	13.584
851.04	13.521
851.21	13.750
851.38	13.724
851.55	13.835
851.72	13.799
851.89	13.601
852.06	13.627
852.24	13.356
852.41	13.413
852.58	13.183
852.75	13.397
852.92	13.251
853.09	13.132
853.26	13.352
853.44	13.339
853.61	13.553
853.78	13.335
853.95	13.546
854.12	13.673
854.29	13.994
854.46	14.148
854.64	14.046
854.81	14.351
854.98	14.301
855.15	14.155
855.32	13.930
855.49	13.825
855.66	14.077
855.83	14.003
856.00	14.182
856.18	14.018
856.35	14.190
856.52	14.131
856.69	13.747
856.86	13.424
857.03	13.596
857.20	13.907
857.37	13.981
857.54	14.246
857.71	14.236
857.89	14.400
858.06	14.028
858.23	13.803
858.40	13.584
858.57	13.781
858.74	13.828
858.91	13.751
859.08	13.371
859.25	13.509
859.42	13.464
859.59	13.217
859.76	13.020
859.94	13.238
860.11	13.626
860.28	14.092
860.45	14.120
860.62	14.337
860.79	14.453
860.96	14.753
861.13	14.307
861.30	14.112
861.47	14.245
861.64	14.215
861.81	14.118
861.98	14.106
862.15	13.998
862.32	13.843
862.49	13.740
862.66	13.609
862.83	13.309
863.01	13.772
863.18	13.616
863.35	13.625
863.52	13.797
863.69	13.766
863.86	13.567
864.03	13.460
864.20	13.823
864.37	13.792
864.54	14.030
864.71	14.810
864.88	14.789
865.05	15.074
865.22	15.219
865.39	15.140
865.56	15.425
865.73	15.731
865.90	16.058
866.07	15.605
866.24	15.696
866.41	15.653
866.58	14.920
866.75	14.842
866.92	14.550
867.09	14.520
867.26	14.802
867.43	14.508
867.60	14.310
867.77	13.741
867.94	14.126
868.11	14.474
868.28	14.468
868.45	14.690
868.62	14.774
868.79	14.827
868.96	14.978
869.13	14.733
869.30	14.872
869.47	14.834
869.64	14.846
869.81	14.984
869.98	14.876
870.15	15.009
870.32	14.807
870.49	14.258
870.66	14.459
870.83	14.320
871.00	14.456
871.16	14.599
871.33	14.575
871.50	14.644
871.67	14.541
871.84	14.261
872.01	14.010
872.18	14.194
872.35	14.587
872.52	14.594
872.69	14.377
872.86	14.220
873.03	14.311
873.20	14.333
873.37	14.448
873.54	14.415
873.71	14.483
873.88	14.558
874.05	14.474
874.21	14.520
874.38	14.245
874.55	14.314
874.72	14.132
874.89	13.915
875.06	13.887
875.23	14.073
875.40	13.857
875.57	13.979
875.74	14.008
875.91	14.153
876.08	14.324
876.24	14.386
876.41	14.460
876.58	14.687
876.75	14.558
876.92	14.627
877.09	14.709
877.26	15.040
877.43	14.873
877.60	14.886
877.77	15.122
877.93	15.121
878.10	15.218
878.27	15.511
878.44	15.530
878.61	15.766
878.78	15.798
878.95	15.542
879.12	15.398
879.28	15.586
879.45	15.684
879.62	15.507
879.79	15.272
879.96	15.566
880.13	15.376
880.30	15.461
880.47	15.429
880.63	15.483
880.80	15.715
880.97	15.848
881.14	15.836
881.31	16.086
881.48	16.186
881.65	16.612
881.81	16.869
881.98	17.312
882.15	17.677
882.32	18.075
882.49	18.309
882.66	18.406
882.82	18.389
882.99	18.396
883.16	18.342
883.33	18.332
883.50	18.272
883.67	18.236
883.83	18.191
884.00	18.116
884.17	17.995
884.34	17.885
884.51	17.773
884.68	17.731
884.84	17.644
885.01	17.597
885.18	17.501
885.35	17.414
885.52	17.317
885.68	17.217
885.85	17.131
886.02	16.708
886.19	16.393
886.36	16.806
886.53	17.092
886.69	16.783
>>>>>End Spectral Data<<<<<
