OOIBase32 Version 2.0.6.5 Data File
++++++++++++++++++++++++++++++++++++
Date: 03-24-2011, 10:55:30
User: Valued Ocean Optics Customer
Spectrometer Serial Number: USB4C01507
Spectrometer Channel: Master
Integration Time (msec): 46
Spectra Averaged: 30
Boxcar Smoothing: 5
Correct for Electrical Dark: Enabled
Time Normalized: Disabled
Dual-beam Reference: Disabled
Reference Channel: Master
Temperature: Not acquired
Spectrometer Type: S4000
ADC Type: USB4000
Number of Pixels in File: 3648
Graph Title: 
>>>>>Begin Spectral Data<<<<<
179.17	1138.856
179.39	3306.385
179.60	132.872
179.82	-137.729
180.03	205.222
180.24	89.854
180.46	60.533
180.67	-49.836
180.89	93.881
181.10	-215.289
181.31	122.115
181.53	-120.111
181.74	57.428
181.96	258.355
182.17	117.013
182.39	25.480
182.60	136.112
182.81	110.842
183.03	108.786
183.24	-341.035
183.46	61.749
183.67	45.483
183.88	31.982
184.10	31.796
184.31	28.277
184.53	30.263
184.74	21.343
184.96	25.190
185.17	11.510
185.38	9.437
185.60	15.739
185.81	9.337
186.03	15.439
186.24	17.279
186.45	21.277
186.67	18.631
186.88	24.158
187.10	26.555
187.31	24.761
187.52	24.502
187.74	25.611
187.95	19.789
188.17	14.661
188.38	9.944
188.59	14.899
188.81	6.598
189.02	10.188
189.24	5.732
189.45	6.474
189.66	4.329
189.88	-1.566
190.09	-3.385
190.30	1.020
190.52	10.261
190.73	11.966
190.95	10.493
191.16	11.677
191.37	7.789
191.59	8.275
191.80	9.379
192.02	11.321
192.23	12.397
192.44	5.644
192.66	5.923
192.87	-4.742
193.08	-8.134
193.30	-9.366
193.51	-5.565
193.73	-1.739
193.94	5.897
194.15	8.426
194.37	12.581
194.58	17.519
194.79	12.073
195.01	13.646
195.22	19.667
195.44	20.684
195.65	19.409
195.86	20.573
196.08	14.092
196.29	13.816
196.50	10.030
196.72	10.724
196.93	14.058
197.14	17.863
197.36	17.716
197.57	9.784
197.79	9.997
198.00	7.024
198.21	12.639
198.43	16.782
198.64	12.312
198.85	14.453
199.07	11.588
199.28	10.368
199.49	9.157
199.71	2.626
199.92	7.738
200.13	10.111
200.35	20.609
200.56	3.546
200.78	4.680
200.99	-1.723
201.20	1.802
201.42	8.586
201.63	-0.655
201.84	1.807
202.06	4.754
202.27	2.264
202.48	3.783
202.70	-9.891
202.91	-4.672
203.12	-8.166
203.34	-4.743
203.55	-8.832
203.76	-13.788
203.98	-3.720
204.19	-1.443
204.40	-0.662
204.62	0.304
204.83	-8.062
205.04	-1.911
205.26	-1.943
205.47	2.494
205.68	-0.190
205.90	-0.193
206.11	-1.477
206.32	-5.714
206.54	-5.900
206.75	-4.469
206.96	-6.295
207.18	3.562
207.39	2.823
207.60	9.292
207.82	7.066
208.03	12.287
208.24	10.390
208.45	12.055
208.67	8.737
208.88	5.948
209.09	6.344
209.31	5.147
209.52	-0.412
209.73	-1.771
209.95	-4.107
210.16	0.051
210.37	-2.735
210.59	2.314
210.80	-0.159
211.01	4.289
211.23	5.206
211.44	2.495
211.65	4.705
211.86	6.016
212.08	7.718
212.29	6.313
212.50	-0.537
212.72	-2.301
212.93	-5.477
213.14	-2.097
213.36	-6.430
213.57	-5.818
213.78	-5.825
213.99	-2.252
214.21	-0.516
214.42	-0.318
214.63	-1.178
214.85	-0.487
215.06	2.777
215.27	4.245
215.49	1.741
215.70	4.418
215.91	4.348
216.12	3.331
216.34	1.307
216.55	1.491
216.76	2.089
216.98	3.326
217.19	5.431
217.40	7.466
217.61	7.246
217.83	10.041
218.04	10.099
218.25	8.373
218.47	10.519
218.68	9.648
218.89	7.814
219.10	7.633
219.32	6.838
219.53	7.698
219.74	7.044
219.95	6.180
220.17	4.836
220.38	4.073
220.59	3.111
220.81	1.074
221.02	2.712
221.23	3.455
221.44	2.226
221.66	2.924
221.87	1.272
222.08	1.188
222.29	0.735
222.51	1.927
222.72	1.416
222.93	2.934
223.14	4.431
223.36	3.400
223.57	2.708
223.78	2.521
223.99	3.292
224.21	4.012
224.42	2.835
224.63	2.601
224.84	1.498
225.06	2.118
225.27	2.317
225.48	2.234
225.69	2.391
225.91	3.073
226.12	2.663
226.33	2.547
226.54	2.162
226.76	2.141
226.97	2.221
227.18	2.397
227.39	2.386
227.61	2.402
227.82	2.297
228.03	2.174
228.24	1.996
228.46	2.122
228.67	2.002
228.88	2.091
229.09	2.082
229.31	2.125
229.52	2.049
229.73	2.132
229.94	2.024
230.16	2.141
230.37	2.236
230.58	2.179
230.79	2.274
231.00	2.432
231.22	2.247
231.43	2.661
231.64	2.696
231.85	2.496
232.07	2.219
232.28	2.139
232.49	2.026
232.70	2.043
232.91	2.603
233.13	2.727
233.34	2.722
233.55	3.240
233.76	2.870
233.98	3.086
234.19	3.230
234.40	3.300
234.61	3.309
234.82	3.122
235.04	2.931
235.25	2.773
235.46	2.247
235.67	2.349
235.88	1.960
236.10	2.203
236.31	1.921
236.52	2.013
236.73	2.264
236.94	2.457
237.16	2.328
237.37	2.943
237.58	2.716
237.79	3.027
238.01	2.715
238.22	2.864
238.43	2.526
238.64	2.883
238.85	2.817
239.06	2.312
239.28	2.157
239.49	2.558
239.70	2.066
239.91	2.286
240.12	2.271
240.34	2.323
240.55	2.253
240.76	2.374
240.97	2.180
241.18	2.037
241.40	2.072
241.61	2.043
241.82	1.945
242.03	2.056
242.24	1.960
242.45	1.910
242.67	1.838
242.88	1.940
243.09	1.844
243.30	1.944
243.51	2.308
243.73	2.336
243.94	2.278
244.15	2.225
244.36	2.148
244.57	2.327
244.78	2.403
245.00	2.278
245.21	1.974
245.42	2.055
245.63	1.867
245.84	1.831
246.05	1.840
246.27	1.882
246.48	1.829
246.69	1.862
246.90	1.824
247.11	1.766
247.32	1.770
247.54	1.798
247.75	1.734
247.96	1.805
248.17	1.781
248.38	1.818
248.59	1.768
248.81	1.802
249.02	1.725
249.23	1.640
249.44	1.630
249.65	1.767
249.86	1.612
250.07	1.771
250.29	1.625
250.50	1.439
250.71	1.273
250.92	1.302
251.13	1.468
251.34	1.624
251.55	1.542
251.77	1.657
251.98	1.616
252.19	1.615
252.40	1.502
252.61	1.430
252.82	1.427
253.03	1.512
253.25	1.709
253.46	1.564
253.67	1.384
253.88	1.362
254.09	1.142
254.30	1.004
254.51	1.323
254.73	1.312
254.94	1.672
255.15	1.759
255.36	1.526
255.57	1.051
255.78	1.096
255.99	1.172
256.20	1.373
256.42	1.489
256.63	1.442
256.84	1.390
257.05	1.420
257.26	1.273
257.47	1.254
257.68	1.406
257.89	1.548
258.10	1.537
258.32	1.483
258.53	1.410
258.74	1.392
258.95	1.434
259.16	1.467
259.37	1.432
259.58	1.407
259.79	1.407
260.00	1.439
260.22	1.443
260.43	1.467
260.64	1.460
260.85	1.600
261.06	1.696
261.27	1.742
261.48	1.739
261.69	1.801
261.90	1.881
262.12	1.991
262.33	1.962
262.54	1.996
262.75	2.058
262.96	2.105
263.17	1.974
263.38	1.857
263.59	1.755
263.80	1.700
264.01	1.862
264.22	1.772
264.44	1.765
264.65	1.615
264.86	1.606
265.07	1.493
265.28	1.565
265.49	1.575
265.70	1.565
265.91	1.654
266.12	1.784
266.33	1.671
266.54	1.720
266.75	1.624
266.97	1.706
267.18	1.803
267.39	1.826
267.60	1.732
267.81	1.693
268.02	1.660
268.23	1.734
268.44	1.576
268.65	1.583
268.86	1.656
269.07	1.713
269.28	1.662
269.49	1.504
269.70	1.480
269.92	1.498
270.13	1.418
270.34	1.595
270.55	1.451
270.76	1.520
270.97	1.585
271.18	1.534
271.39	1.448
271.60	1.463
271.81	1.502
272.02	1.516
272.23	1.536
272.44	1.606
272.65	1.466
272.86	1.503
273.07	1.448
273.28	1.469
273.49	1.369
273.71	1.377
273.92	1.421
274.13	1.350
274.34	1.325
274.55	1.331
274.76	1.305
274.97	1.369
275.18	1.288
275.39	1.384
275.60	1.326
275.81	1.550
276.02	1.467
276.23	1.415
276.44	1.463
276.65	1.544
276.86	1.471
277.07	1.421
277.28	1.397
277.49	1.495
277.70	1.293
277.91	1.291
278.12	1.065
278.33	1.174
278.54	1.166
278.75	1.130
278.96	1.025
279.17	1.100
279.39	1.095
279.60	1.035
279.81	0.998
280.02	1.055
280.23	0.976
280.44	1.000
280.65	0.982
280.86	1.005
281.07	1.108
281.28	1.160
281.49	1.076
281.70	1.169
281.91	1.199
282.12	1.311
282.33	1.413
282.54	1.440
282.75	1.584
282.96	1.727
283.17	1.693
283.38	1.658
283.59	1.674
283.80	1.636
284.01	1.460
284.22	1.488
284.43	1.391
284.64	1.304
284.85	1.372
285.06	1.328
285.27	1.253
285.48	1.265
285.69	1.181
285.90	1.232
286.11	1.298
286.32	1.368
286.53	1.343
286.74	1.393
286.95	1.443
287.16	1.485
287.37	1.500
287.58	1.486
287.79	1.465
288.00	1.522
288.21	1.430
288.42	1.397
288.63	1.483
288.84	1.503
289.05	1.444
289.26	1.456
289.47	1.396
289.68	1.322
289.89	1.347
290.10	1.315
290.31	1.302
290.51	1.346
290.72	1.327
290.93	1.389
291.14	1.398
291.35	1.434
291.56	1.390
291.77	1.299
291.98	1.336
292.19	1.366
292.40	1.364
292.61	1.330
292.82	1.288
293.03	1.358
293.24	1.225
293.45	1.249
293.66	1.285
293.87	1.371
294.08	1.368
294.29	1.407
294.50	1.334
294.71	1.365
294.92	1.422
295.13	1.424
295.34	1.301
295.55	1.346
295.76	1.246
295.96	1.194
296.17	1.158
296.38	1.245
296.59	1.206
296.80	1.199
297.01	1.202
297.22	1.200
297.43	1.179
297.64	1.269
297.85	1.225
298.06	1.251
298.27	1.259
298.48	1.276
298.69	1.224
298.90	1.248
299.11	1.263
299.32	1.319
299.53	1.328
299.73	1.343
299.94	1.371
300.15	1.392
300.36	1.398
300.57	1.403
300.78	1.409
300.99	1.427
301.20	1.355
301.41	1.389
301.62	1.331
301.83	1.360
302.04	1.257
302.25	1.223
302.45	1.230
302.66	1.243
302.87	1.265
303.08	1.199
303.29	1.161
303.50	1.253
303.71	1.228
303.92	1.245
304.13	1.240
304.34	1.336
304.55	1.338
304.76	1.364
304.96	1.303
305.17	1.217
305.38	1.214
305.59	1.273
305.80	1.270
306.01	1.303
306.22	1.240
306.43	1.234
306.64	1.148
306.85	1.075
307.06	1.024
307.26	1.102
307.47	1.088
307.68	1.183
307.89	1.137
308.10	1.133
308.31	1.125
308.52	1.208
308.73	1.215
308.94	1.324
309.14	1.389
309.35	1.440
309.56	1.418
309.77	1.428
309.98	1.413
310.19	1.457
310.40	1.393
310.61	1.379
310.82	1.336
311.02	1.281
311.23	1.228
311.44	1.208
311.65	1.141
311.86	1.109
312.07	1.112
312.28	1.021
312.49	0.957
312.69	0.947
312.90	0.979
313.11	1.013
313.32	1.013
313.53	0.996
313.74	0.932
313.95	0.903
314.16	0.939
314.36	1.025
314.57	1.087
314.78	1.177
314.99	1.230
315.20	1.146
315.41	1.182
315.62	1.155
315.82	1.187
316.03	1.199
316.24	1.257
316.45	1.309
316.66	1.240
316.87	1.266
317.08	1.189
317.28	1.244
317.49	1.254
317.70	1.183
317.91	1.242
318.12	1.230
318.33	1.259
318.54	1.249
318.74	1.211
318.95	1.193
319.16	1.217
319.37	1.248
319.58	1.236
319.79	1.236
319.99	1.228
320.20	1.242
320.41	1.248
320.62	1.268
320.83	1.260
321.04	1.287
321.24	1.313
321.45	1.333
321.66	1.349
321.87	1.316
322.08	1.349
322.29	1.359
322.49	1.313
322.70	1.287
322.91	1.264
323.12	1.299
323.33	1.260
323.54	1.243
323.74	1.173
323.95	1.131
324.16	1.137
324.37	1.115
324.58	1.125
324.79	1.153
324.99	1.123
325.20	1.205
325.41	1.167
325.62	1.208
325.83	1.232
326.03	1.192
326.24	1.218
326.45	1.203
326.66	1.155
326.87	1.140
327.07	1.119
327.28	1.232
327.49	1.173
327.70	1.158
327.91	1.134
328.11	1.139
328.32	1.207
328.53	1.234
328.74	1.271
328.95	1.295
329.15	1.305
329.36	1.359
329.57	1.276
329.78	1.264
329.99	1.284
330.19	1.264
330.40	1.251
330.61	1.249
330.82	1.141
331.03	1.044
331.23	1.107
331.44	1.103
331.65	1.058
331.86	1.107
332.07	1.065
332.27	1.064
332.48	1.082
332.69	1.113
332.90	1.127
333.10	1.239
333.31	1.278
333.52	1.220
333.73	1.236
333.94	1.239
334.14	1.225
334.35	1.250
334.56	1.267
334.77	1.253
334.97	1.199
335.18	1.158
335.39	1.085
335.60	1.108
335.80	1.104
336.01	1.078
336.22	1.041
336.43	1.050
336.64	1.047
336.84	1.026
337.05	0.994
337.26	0.981
337.47	0.951
337.67	0.984
337.88	0.965
338.09	0.955
338.30	0.962
338.50	1.042
338.71	1.029
338.92	1.045
339.13	1.109
339.33	1.176
339.54	1.196
339.75	1.240
339.96	1.230
340.16	1.222
340.37	1.267
340.58	1.243
340.79	1.218
340.99	1.198
341.20	1.181
341.41	1.111
341.62	1.045
341.82	1.068
342.03	0.992
342.24	0.969
342.44	0.975
342.65	0.927
342.86	0.945
343.07	0.924
343.27	0.960
343.48	0.958
343.69	0.963
343.90	1.034
344.10	0.989
344.31	1.049
344.52	1.085
344.72	1.075
344.93	1.091
345.14	1.114
345.35	1.080
345.55	1.048
345.76	1.046
345.97	1.073
346.18	1.012
346.38	1.022
346.59	0.989
346.80	0.991
347.00	0.982
347.21	0.975
347.42	0.993
347.62	1.031
347.83	1.020
348.04	1.009
348.25	0.987
348.45	1.009
348.66	1.039
348.87	1.122
349.07	1.088
349.28	1.095
349.49	1.079
349.70	1.061
349.90	1.034
350.11	1.060
350.32	1.036
350.52	1.050
350.73	1.064
350.94	1.056
351.14	1.006
351.35	1.028
351.56	1.034
351.76	1.049
351.97	1.028
352.18	1.062
352.39	1.031
352.59	1.070
352.80	1.039
353.01	1.077
353.21	1.037
353.42	1.018
353.63	0.999
353.83	0.974
354.04	0.958
354.25	0.937
354.45	0.891
354.66	0.922
354.87	0.915
355.07	0.904
355.28	0.843
355.49	0.893
355.69	0.887
355.90	0.883
356.11	0.895
356.31	0.944
356.52	0.969
356.73	1.013
356.93	0.973
357.14	0.952
357.35	0.994
357.55	1.003
357.76	0.970
357.97	0.944
358.17	0.976
358.38	0.983
358.59	0.951
358.79	0.948
359.00	0.908
359.21	0.950
359.41	0.973
359.62	0.980
359.83	0.979
360.03	0.984
360.24	1.047
360.44	1.034
360.65	1.026
360.86	1.021
361.06	0.991
361.27	0.989
361.48	0.954
361.68	0.947
361.89	0.973
362.10	0.963
362.30	0.979
362.51	0.953
362.72	0.962
362.92	0.991
363.13	0.984
363.33	0.976
363.54	1.005
363.75	1.032
363.95	1.047
364.16	1.028
364.37	1.054
364.57	1.080
364.78	1.080
364.98	1.076
365.19	1.043
365.40	1.096
365.60	1.106
365.81	1.107
366.02	1.091
366.22	1.081
366.43	1.055
366.63	1.022
366.84	0.974
367.05	0.999
367.25	0.963
367.46	0.959
367.66	0.937
367.87	0.971
368.08	0.954
368.28	0.963
368.49	0.941
368.69	0.927
368.90	0.942
369.11	0.972
369.31	0.948
369.52	0.995
369.72	1.012
369.93	1.007
370.14	1.005
370.34	0.986
370.55	0.939
370.75	0.957
370.96	0.975
371.17	1.000
371.37	0.963
371.58	1.003
371.78	0.983
371.99	0.990
372.20	0.985
372.40	0.968
372.61	0.973
372.81	1.029
373.02	1.030
373.23	1.011
373.43	1.004
373.64	1.013
373.84	0.973
374.05	0.986
374.25	0.959
374.46	0.933
374.67	0.952
374.87	1.001
375.08	0.974
375.28	0.965
375.49	0.965
375.69	0.962
375.90	0.959
376.11	0.967
376.31	0.946
376.52	0.948
376.72	0.940
376.93	0.937
377.13	0.914
377.34	0.921
377.55	0.942
377.75	0.959
377.96	0.920
378.16	0.938
378.37	0.946
378.57	0.965
378.78	0.984
378.98	0.996
379.19	0.979
379.40	0.950
379.60	0.921
379.81	0.901
380.01	0.874
380.22	0.887
380.42	0.863
380.63	0.835
380.83	0.815
381.04	0.798
381.24	0.804
381.45	0.805
381.66	0.827
381.86	0.854
382.07	0.860
382.27	0.876
382.48	0.879
382.68	0.877
382.89	0.887
383.09	0.900
383.30	0.921
383.50	0.923
383.71	0.905
383.91	0.910
384.12	0.917
384.32	0.910
384.53	0.906
384.73	0.929
384.94	0.946
385.15	0.957
385.35	0.963
385.56	0.949
385.76	0.935
385.97	0.992
386.17	0.980
386.38	0.978
386.58	0.973
386.79	1.008
386.99	0.998
387.20	1.007
387.40	0.994
387.61	0.999
387.81	0.988
388.02	1.003
388.22	0.980
388.43	0.976
388.63	0.965
388.84	1.017
389.04	0.997
389.25	0.997
389.45	0.960
389.66	0.975
389.86	0.973
390.07	0.991
390.27	0.975
390.48	0.948
390.68	0.969
390.89	0.994
391.09	0.968
391.30	0.979
391.50	0.978
391.71	1.007
391.91	0.995
392.12	1.012
392.32	1.017
392.53	1.048
392.73	1.071
392.94	1.059
393.14	1.060
393.35	1.049
393.55	1.029
393.75	1.030
393.96	1.017
394.16	1.012
394.37	0.976
394.57	0.983
394.78	0.974
394.98	0.941
395.19	0.922
395.39	0.917
395.60	0.929
395.80	0.943
396.01	0.942
396.21	0.985
396.42	0.973
396.62	0.977
396.83	0.960
397.03	0.977
397.23	1.010
397.44	1.035
397.64	1.032
397.85	1.019
398.05	1.023
398.26	1.022
398.46	0.983
398.67	1.010
398.87	1.023
399.08	1.025
399.28	1.007
399.48	0.996
399.69	0.972
399.89	0.976
400.10	0.992
400.30	0.987
400.51	0.994
400.71	0.998
400.92	1.003
401.12	0.996
401.32	0.975
401.53	0.966
401.73	0.967
401.94	1.004
402.14	1.001
402.35	1.003
402.55	1.019
402.75	1.012
402.96	1.015
403.16	1.009
403.37	1.007
403.57	1.041
403.78	1.035
403.98	1.046
404.18	1.029
404.39	1.012
404.59	1.012
404.80	0.994
405.00	0.995
405.21	1.014
405.41	1.007
405.61	1.010
405.82	1.002
406.02	1.019
406.23	1.005
406.43	1.019
406.63	1.037
406.84	1.036
407.04	1.035
407.25	1.056
407.45	1.051
407.65	1.051
407.86	1.033
408.06	1.010
408.27	0.994
408.47	1.010
408.67	0.987
408.88	0.982
409.08	0.964
409.29	0.969
409.49	0.954
409.69	0.944
409.90	0.954
410.10	0.980
410.31	0.995
410.51	1.017
410.71	1.018
410.92	1.013
411.12	1.005
411.33	1.022
411.53	1.006
411.73	0.979
411.94	0.988
412.14	0.985
412.34	0.977
412.55	0.993
412.75	0.966
412.96	0.969
413.16	0.974
413.36	0.982
413.57	0.976
413.77	0.974
413.97	1.013
414.18	1.001
414.38	1.015
414.59	1.015
414.79	0.985
414.99	1.003
415.20	0.990
415.40	1.012
415.60	0.995
415.81	0.991
416.01	1.006
416.21	0.991
416.42	1.002
416.62	1.018
416.83	1.001
417.03	1.013
417.23	1.011
417.44	1.012
417.64	0.988
417.84	0.991
418.05	0.997
418.25	0.991
418.45	0.984
418.66	0.973
418.86	0.934
419.06	0.966
419.27	0.950
419.47	0.954
419.67	0.951
419.88	0.957
420.08	0.953
420.28	0.942
420.49	0.947
420.69	0.940
420.89	0.934
421.10	0.943
421.30	0.928
421.50	0.942
421.71	0.934
421.91	0.941
422.11	0.940
422.32	0.960
422.52	0.965
422.72	0.965
422.93	0.988
423.13	1.005
423.33	1.013
423.54	1.008
423.74	1.002
423.94	1.019
424.15	1.006
424.35	1.011
424.55	1.006
424.76	1.011
424.96	1.016
425.16	1.013
425.36	1.004
425.57	1.005
425.77	1.006
425.97	1.015
426.18	1.008
426.38	1.018
426.58	1.028
426.79	1.038
426.99	1.031
427.19	1.032
427.39	1.033
427.60	1.045
427.80	1.056
428.00	1.072
428.21	1.077
428.41	1.074
428.61	1.072
428.82	1.066
429.02	1.066
429.22	1.084
429.42	1.085
429.63	1.086
429.83	1.079
430.03	1.066
430.24	1.061
430.44	1.075
430.64	1.070
430.84	1.085
431.05	1.085
431.25	1.079
431.45	1.055
431.65	1.052
431.86	1.047
432.06	1.049
432.26	1.048
432.47	1.060
432.67	1.041
432.87	1.047
433.07	1.038
433.28	1.038
433.48	1.037
433.68	1.044
433.88	1.054
434.09	1.061
434.29	1.059
434.49	1.069
434.69	1.051
434.90	1.055
435.10	1.047
435.30	1.055
435.51	1.064
435.71	1.060
435.91	1.075
436.11	1.061
436.32	1.037
436.52	1.057
436.72	1.047
436.92	1.047
437.13	1.048
437.33	1.059
437.53	1.043
437.73	1.032
437.93	1.044
438.14	1.042
438.34	1.040
438.54	1.059
438.74	1.052
438.95	1.054
439.15	1.075
439.35	1.081
439.55	1.066
439.76	1.081
439.96	1.090
440.16	1.086
440.36	1.079
440.56	1.076
440.77	1.062
440.97	1.060
441.17	1.056
441.37	1.049
441.58	1.041
441.78	1.071
441.98	1.069
442.18	1.074
442.38	1.072
442.59	1.086
442.79	1.097
442.99	1.119
443.19	1.115
443.40	1.130
443.60	1.130
443.80	1.136
444.00	1.109
444.20	1.107
444.41	1.078
444.61	1.084
444.81	1.083
445.01	1.085
445.21	1.080
445.42	1.096
445.62	1.087
445.82	1.074
446.02	1.075
446.22	1.078
446.43	1.081
446.63	1.086
446.83	1.083
447.03	1.080
447.23	1.079
447.44	1.085
447.64	1.065
447.84	1.073
448.04	1.080
448.24	1.084
448.44	1.086
448.65	1.091
448.85	1.089
449.05	1.106
449.25	1.106
449.45	1.117
449.65	1.126
449.86	1.145
450.06	1.140
450.26	1.149
450.46	1.152
450.66	1.156
450.87	1.152
451.07	1.175
451.27	1.149
451.47	1.152
451.67	1.147
451.87	1.155
452.08	1.150
452.28	1.147
452.48	1.139
452.68	1.144
452.88	1.141
453.08	1.136
453.28	1.127
453.49	1.137
453.69	1.134
453.89	1.133
454.09	1.120
454.29	1.136
454.49	1.151
454.70	1.160
454.90	1.144
455.10	1.141
455.30	1.123
455.50	1.133
455.70	1.139
455.90	1.152
456.11	1.141
456.31	1.146
456.51	1.127
456.71	1.121
456.91	1.129
457.11	1.144
457.31	1.163
457.51	1.187
457.72	1.175
457.92	1.166
458.12	1.147
458.32	1.149
458.52	1.147
458.72	1.159
458.92	1.156
459.12	1.149
459.33	1.133
459.53	1.138
459.73	1.149
459.93	1.153
460.13	1.163
460.33	1.172
460.53	1.176
460.73	1.168
460.93	1.166
461.14	1.171
461.34	1.177
461.54	1.190
461.74	1.188
461.94	1.180
462.14	1.178
462.34	1.169
462.54	1.166
462.74	1.160
462.95	1.174
463.15	1.183
463.35	1.178
463.55	1.193
463.75	1.186
463.95	1.188
464.15	1.181
464.35	1.185
464.55	1.191
464.75	1.185
464.95	1.202
465.16	1.194
465.36	1.183
465.56	1.190
465.76	1.176
465.96	1.182
466.16	1.183
466.36	1.196
466.56	1.191
466.76	1.193
466.96	1.213
467.16	1.213
467.36	1.209
467.57	1.208
467.77	1.204
467.97	1.209
468.17	1.214
468.37	1.207
468.57	1.204
468.77	1.210
468.97	1.209
469.17	1.208
469.37	1.207
469.57	1.220
469.77	1.229
469.97	1.235
470.17	1.240
470.37	1.235
470.57	1.236
470.78	1.233
470.98	1.252
471.18	1.257
471.38	1.248
471.58	1.259
471.78	1.259
471.98	1.256
472.18	1.263
472.38	1.256
472.58	1.269
472.78	1.292
472.98	1.306
473.18	1.301
473.38	1.308
473.58	1.321
473.78	1.319
473.98	1.323
474.18	1.340
474.38	1.336
474.58	1.342
474.78	1.347
474.98	1.337
475.18	1.344
475.38	1.342
475.58	1.341
475.79	1.330
475.99	1.327
476.19	1.319
476.39	1.305
476.59	1.310
476.79	1.319
476.99	1.305
477.19	1.303
477.39	1.286
477.59	1.288
477.79	1.290
477.99	1.293
478.19	1.292
478.39	1.304
478.59	1.313
478.79	1.315
478.99	1.312
479.19	1.320
479.39	1.329
479.59	1.348
479.79	1.345
479.99	1.352
480.19	1.357
480.39	1.352
480.59	1.349
480.79	1.349
480.99	1.351
481.19	1.354
481.39	1.354
481.59	1.352
481.79	1.350
481.99	1.356
482.19	1.348
482.39	1.356
482.59	1.368
482.79	1.369
482.99	1.363
483.19	1.368
483.39	1.383
483.59	1.396
483.79	1.393
483.99	1.388
484.19	1.385
484.39	1.386
484.58	1.383
484.78	1.379
484.98	1.380
485.18	1.382
485.38	1.381
485.58	1.370
485.78	1.354
485.98	1.355
486.18	1.361
486.38	1.368
486.58	1.376
486.78	1.377
486.98	1.387
487.18	1.388
487.38	1.396
487.58	1.398
487.78	1.400
487.98	1.405
488.18	1.403
488.38	1.404
488.58	1.403
488.78	1.401
488.98	1.406
489.18	1.406
489.37	1.406
489.57	1.410
489.77	1.414
489.97	1.419
490.17	1.425
490.37	1.434
490.57	1.434
490.77	1.443
490.97	1.442
491.17	1.442
491.37	1.444
491.57	1.449
491.77	1.443
491.97	1.446
492.17	1.443
492.37	1.446
492.56	1.451
492.76	1.454
492.96	1.456
493.16	1.465
493.36	1.469
493.56	1.479
493.76	1.484
493.96	1.494
494.16	1.498
494.36	1.506
494.56	1.512
494.76	1.522
494.95	1.529
495.15	1.533
495.35	1.542
495.55	1.556
495.75	1.549
495.95	1.558
496.15	1.562
496.35	1.561
496.55	1.567
496.75	1.564
496.95	1.560
497.14	1.568
497.34	1.571
497.54	1.575
497.74	1.576
497.94	1.582
498.14	1.578
498.34	1.579
498.54	1.582
498.74	1.588
498.93	1.602
499.13	1.597
499.33	1.603
499.53	1.610
499.73	1.617
499.93	1.620
500.13	1.629
500.33	1.633
500.53	1.640
500.72	1.649
500.92	1.648
501.12	1.645
501.32	1.649
501.52	1.653
501.72	1.655
501.92	1.647
502.12	1.648
502.31	1.650
502.51	1.652
502.71	1.660
502.91	1.652
503.11	1.660
503.31	1.666
503.51	1.674
503.70	1.669
503.90	1.678
504.10	1.687
504.30	1.691
504.50	1.692
504.70	1.706
504.90	1.710
505.09	1.732
505.29	1.731
505.49	1.726
505.69	1.735
505.89	1.740
506.09	1.734
506.29	1.729
506.48	1.732
506.68	1.735
506.88	1.738
507.08	1.736
507.28	1.742
507.48	1.752
507.67	1.766
507.87	1.765
508.07	1.770
508.27	1.782
508.47	1.793
508.67	1.805
508.86	1.808
509.06	1.804
509.26	1.808
509.46	1.805
509.66	1.803
509.85	1.809
510.05	1.819
510.25	1.822
510.45	1.819
510.65	1.820
510.85	1.817
511.04	1.823
511.24	1.834
511.44	1.842
511.64	1.843
511.84	1.853
512.03	1.849
512.23	1.853
512.43	1.856
512.63	1.864
512.83	1.866
513.02	1.878
513.22	1.879
513.42	1.885
513.62	1.895
513.82	1.899
514.01	1.913
514.21	1.924
514.41	1.927
514.61	1.933
514.81	1.927
515.00	1.924
515.20	1.918
515.40	1.932
515.60	1.918
515.80	1.921
515.99	1.926
516.19	1.918
516.39	1.918
516.59	1.927
516.78	1.932
516.98	1.947
517.18	1.951
517.38	1.957
517.58	1.951
517.77	1.969
517.97	1.964
518.17	1.963
518.37	1.973
518.56	1.981
518.76	1.986
518.96	1.981
519.16	1.976
519.36	1.995
519.55	2.003
519.75	2.012
519.95	2.016
520.15	2.022
520.34	2.036
520.54	2.040
520.74	2.048
520.94	2.051
521.13	2.070
521.33	2.087
521.53	2.085
521.73	2.095
521.92	2.094
522.12	2.102
522.32	2.115
522.52	2.117
522.71	2.128
522.91	2.135
523.11	2.134
523.31	2.132
523.50	2.130
523.70	2.145
523.90	2.147
524.09	2.157
524.29	2.156
524.49	2.159
524.69	2.173
524.88	2.168
525.08	2.169
525.28	2.174
525.48	2.178
525.67	2.181
525.87	2.173
526.07	2.176
526.26	2.174
526.46	2.183
526.66	2.184
526.86	2.184
527.05	2.189
527.25	2.197
527.45	2.200
527.64	2.203
527.84	2.205
528.04	2.217
528.24	2.219
528.43	2.227
528.63	2.230
528.83	2.230
529.02	2.230
529.22	2.230
529.42	2.226
529.62	2.228
529.81	2.231
530.01	2.236
530.21	2.234
530.40	2.236
530.60	2.237
530.80	2.239
530.99	2.252
531.19	2.257
531.39	2.267
531.58	2.279
531.78	2.289
531.98	2.300
532.18	2.303
532.37	2.314
532.57	2.317
532.77	2.328
532.96	2.323
533.16	2.330
533.36	2.343
533.55	2.349
533.75	2.347
533.95	2.352
534.14	2.352
534.34	2.364
534.54	2.368
534.73	2.389
534.93	2.399
535.13	2.417
535.32	2.413
535.52	2.413
535.72	2.417
535.91	2.435
536.11	2.433
536.31	2.444
536.50	2.451
536.70	2.457
536.90	2.454
537.09	2.456
537.29	2.459
537.48	2.476
537.68	2.479
537.88	2.488
538.07	2.489
538.27	2.502
538.47	2.510
538.66	2.515
538.86	2.526
539.06	2.526
539.25	2.528
539.45	2.533
539.65	2.532
539.84	2.549
540.04	2.554
540.23	2.563
540.43	2.567
540.63	2.570
540.82	2.569
541.02	2.566
541.22	2.577
541.41	2.585
541.61	2.586
541.80	2.587
542.00	2.585
542.20	2.585
542.39	2.587
542.59	2.597
542.79	2.598
542.98	2.606
543.18	2.610
543.37	2.621
543.57	2.618
543.77	2.630
543.96	2.641
544.16	2.649
544.35	2.662
544.55	2.678
544.75	2.678
544.94	2.692
545.14	2.701
545.33	2.716
545.53	2.714
545.73	2.727
545.92	2.735
546.12	2.737
546.31	2.745
546.51	2.752
546.71	2.756
546.90	2.759
547.10	2.766
547.29	2.771
547.49	2.780
547.69	2.794
547.88	2.799
548.08	2.796
548.27	2.803
548.47	2.811
548.66	2.815
548.86	2.817
549.06	2.831
549.25	2.833
549.45	2.847
549.64	2.841
549.84	2.844
550.03	2.858
550.23	2.880
550.43	2.889
550.62	2.890
550.82	2.904
551.01	2.912
551.21	2.916
551.40	2.937
551.60	2.945
551.80	2.960
551.99	2.963
552.19	2.962
552.38	2.957
552.58	2.960
552.77	2.973
552.97	2.974
553.16	2.971
553.36	2.966
553.56	2.976
553.75	2.973
553.95	2.975
554.14	2.967
554.34	2.978
554.53	2.991
554.73	3.000
554.92	3.000
555.12	3.011
555.31	3.028
555.51	3.052
555.70	3.043
555.90	3.051
556.10	3.048
556.29	3.068
556.49	3.077
556.68	3.087
556.88	3.089
557.07	3.097
557.27	3.103
557.46	3.103
557.66	3.096
557.85	3.108
558.05	3.112
558.24	3.139
558.44	3.148
558.63	3.145
558.83	3.141
559.02	3.155
559.22	3.178
559.41	3.175
559.61	3.183
559.80	3.200
560.00	3.201
560.19	3.215
560.39	3.218
560.58	3.222
560.78	3.240
560.97	3.249
561.17	3.250
561.36	3.248
561.56	3.253
561.75	3.257
561.95	3.260
562.14	3.270
562.34	3.272
562.53	3.278
562.73	3.274
562.92	3.278
563.12	3.296
563.31	3.296
563.51	3.291
563.70	3.311
563.90	3.326
564.09	3.331
564.29	3.332
564.48	3.332
564.68	3.335
564.87	3.359
565.07	3.352
565.26	3.351
565.45	3.360
565.65	3.361
565.84	3.364
566.04	3.356
566.23	3.361
566.43	3.374
566.62	3.379
566.82	3.385
567.01	3.375
567.21	3.389
567.40	3.390
567.60	3.403
567.79	3.422
567.98	3.432
568.18	3.458
568.37	3.468
568.57	3.465
568.76	3.483
568.96	3.484
569.15	3.502
569.35	3.506
569.54	3.523
569.73	3.514
569.93	3.505
570.12	3.495
570.32	3.487
570.51	3.488
570.71	3.495
570.90	3.502
571.09	3.515
571.29	3.513
571.48	3.517
571.68	3.513
571.87	3.523
572.07	3.533
572.26	3.544
572.45	3.561
572.65	3.570
572.84	3.576
573.04	3.579
573.23	3.581
573.43	3.594
573.62	3.606
573.81	3.632
574.01	3.649
574.20	3.651
574.40	3.656
574.59	3.647
574.78	3.640
574.98	3.649
575.17	3.652
575.37	3.660
575.56	3.662
575.75	3.658
575.95	3.645
576.14	3.641
576.34	3.652
576.53	3.663
576.72	3.675
576.92	3.686
577.11	3.693
577.31	3.703
577.50	3.695
577.69	3.703
577.89	3.720
578.08	3.723
578.28	3.732
578.47	3.743
578.66	3.742
578.86	3.757
579.05	3.784
579.24	3.793
579.44	3.800
579.63	3.831
579.83	3.835
580.02	3.838
580.21	3.855
580.41	3.863
580.60	3.865
580.79	3.880
580.99	3.878
581.18	3.884
581.38	3.888
581.57	3.904
581.76	3.898
581.96	3.905
582.15	3.924
582.34	3.915
582.54	3.918
582.73	3.939
582.92	3.943
583.12	3.951
583.31	3.948
583.50	3.938
583.70	3.939
583.89	3.952
584.08	3.954
584.28	3.957
584.47	3.973
584.66	3.989
584.86	3.980
585.05	3.987
585.24	3.995
585.44	4.011
585.63	4.035
585.82	4.040
586.02	4.033
586.21	4.061
586.40	4.054
586.60	4.075
586.79	4.068
586.98	4.069
587.18	4.072
587.37	4.072
587.56	4.059
587.76	4.066
587.95	4.067
588.14	4.084
588.34	4.066
588.53	4.080
588.72	4.081
588.92	4.107
589.11	4.132
589.30	4.151
589.50	4.172
589.69	4.194
589.88	4.197
590.07	4.207
590.27	4.220
590.46	4.229
590.65	4.227
590.85	4.241
591.04	4.232
591.23	4.227
591.43	4.214
591.62	4.215
591.81	4.206
592.00	4.213
592.20	4.211
592.39	4.205
592.58	4.220
592.78	4.233
592.97	4.222
593.16	4.234
593.35	4.237
593.55	4.238
593.74	4.233
593.93	4.258
594.13	4.269
594.32	4.285
594.51	4.305
594.70	4.313
594.90	4.310
595.09	4.314
595.28	4.307
595.47	4.331
595.67	4.355
595.86	4.363
596.05	4.369
596.24	4.376
596.44	4.371
596.63	4.358
596.82	4.349
597.02	4.359
597.21	4.367
597.40	4.394
597.59	4.380
597.79	4.383
597.98	4.393
598.17	4.395
598.36	4.387
598.56	4.401
598.75	4.413
598.94	4.434
599.13	4.454
599.32	4.483
599.52	4.469
599.71	4.494
599.90	4.496
600.09	4.507
600.29	4.508
600.48	4.541
600.67	4.535
600.86	4.545
601.06	4.554
601.25	4.557
601.44	4.542
601.63	4.574
601.82	4.578
602.02	4.610
602.21	4.603
602.40	4.630
602.59	4.621
602.79	4.634
602.98	4.655
603.17	4.665
603.36	4.670
603.55	4.663
603.75	4.644
603.94	4.651
604.13	4.634
604.32	4.648
604.51	4.631
604.71	4.634
604.90	4.645
605.09	4.639
605.28	4.632
605.47	4.641
605.67	4.655
605.86	4.679
606.05	4.687
606.24	4.706
606.43	4.713
606.63	4.722
606.82	4.720
607.01	4.725
607.20	4.740
607.39	4.747
607.59	4.730
607.78	4.753
607.97	4.741
608.16	4.725
608.35	4.723
608.54	4.724
608.74	4.737
608.93	4.761
609.12	4.758
609.31	4.777
609.50	4.795
609.69	4.814
609.89	4.800
610.08	4.818
610.27	4.842
610.46	4.863
610.65	4.870
610.84	4.880
611.04	4.869
611.23	4.876
611.42	4.863
611.61	4.865
611.80	4.892
611.99	4.909
612.19	4.904
612.38	4.908
612.57	4.899
612.76	4.907
612.95	4.912
613.14	4.940
613.33	4.963
613.53	4.982
613.72	4.997
613.91	4.976
614.10	4.989
614.29	4.997
614.48	5.005
614.67	5.018
614.86	5.017
615.06	5.016
615.25	5.015
615.44	5.014
615.63	5.006
615.82	5.018
616.01	5.025
616.20	5.026
616.39	5.036
616.59	5.042
616.78	5.044
616.97	5.063
617.16	5.078
617.35	5.088
617.54	5.088
617.73	5.112
617.92	5.112
618.12	5.113
618.31	5.116
618.50	5.136
618.69	5.141
618.88	5.160
619.07	5.161
619.26	5.151
619.45	5.164
619.64	5.180
619.83	5.176
620.03	5.177
620.22	5.201
620.41	5.224
620.60	5.219
620.79	5.235
620.98	5.213
621.17	5.226
621.36	5.252
621.55	5.275
621.74	5.294
621.93	5.306
622.12	5.320
622.32	5.318
622.51	5.304
622.70	5.316
622.89	5.305
623.08	5.336
623.27	5.346
623.46	5.340
623.65	5.329
623.84	5.327
624.03	5.339
624.22	5.359
624.41	5.371
624.60	5.391
624.79	5.394
624.99	5.421
625.18	5.431
625.37	5.430
625.56	5.435
625.75	5.436
625.94	5.431
626.13	5.436
626.32	5.430
626.51	5.439
626.70	5.436
626.89	5.431
627.08	5.449
627.27	5.450
627.46	5.448
627.65	5.473
627.84	5.472
628.03	5.488
628.22	5.496
628.41	5.505
628.60	5.515
628.79	5.543
628.98	5.559
629.17	5.530
629.37	5.536
629.56	5.558
629.75	5.558
629.94	5.572
630.13	5.577
630.32	5.579
630.51	5.577
630.70	5.572
630.89	5.563
631.08	5.576
631.27	5.594
631.46	5.623
631.65	5.625
631.84	5.634
632.03	5.638
632.22	5.656
632.41	5.668
632.60	5.693
632.79	5.707
632.98	5.713
633.17	5.721
633.36	5.740
633.55	5.708
633.74	5.726
633.93	5.734
634.12	5.743
634.31	5.757
634.50	5.752
634.69	5.746
634.88	5.752
635.07	5.752
635.26	5.747
635.45	5.746
635.64	5.768
635.83	5.774
636.02	5.777
636.21	5.793
636.40	5.786
636.59	5.798
636.78	5.811
636.96	5.824
637.15	5.837
637.34	5.840
637.53	5.850
637.72	5.857
637.91	5.850
638.10	5.851
638.29	5.866
638.48	5.870
638.67	5.854
638.86	5.853
639.05	5.865
639.24	5.849
639.43	5.885
639.62	5.889
639.81	5.898
640.00	5.892
640.19	5.907
640.38	5.916
640.57	5.925
640.76	5.958
640.95	5.963
641.14	5.962
641.32	6.018
641.51	6.018
641.70	6.030
641.89	6.058
642.08	6.094
642.27	6.112
642.46	6.115
642.65	6.101
642.84	6.111
643.03	6.121
643.22	6.122
643.41	6.125
643.60	6.127
643.79	6.144
643.98	6.125
644.16	6.117
644.35	6.094
644.54	6.077
644.73	6.096
644.92	6.111
645.11	6.111
645.30	6.117
645.49	6.126
645.68	6.114
645.87	6.105
646.06	6.112
646.24	6.134
646.43	6.147
646.62	6.159
646.81	6.171
647.00	6.173
647.19	6.167
647.38	6.179
647.57	6.145
647.76	6.184
647.95	6.199
648.13	6.209
648.32	6.208
648.51	6.223
648.70	6.211
648.89	6.230
649.08	6.232
649.27	6.261
649.46	6.259
649.65	6.267
649.83	6.257
650.02	6.260
650.21	6.279
650.40	6.287
650.59	6.287
650.78	6.330
650.97	6.324
651.16	6.343
651.34	6.342
651.53	6.363
651.72	6.373
651.91	6.367
652.10	6.366
652.29	6.373
652.48	6.398
652.66	6.412
652.85	6.405
653.04	6.442
653.23	6.437
653.42	6.446
653.61	6.428
653.80	6.454
653.98	6.464
654.17	6.471
654.36	6.474
654.55	6.454
654.74	6.463
654.93	6.474
655.11	6.441
655.30	6.448
655.49	6.467
655.68	6.487
655.87	6.511
656.06	6.532
656.24	6.549
656.43	6.552
656.62	6.572
656.81	6.579
657.00	6.592
657.19	6.636
657.37	6.647
657.56	6.644
657.75	6.600
657.94	6.582
658.13	6.598
658.31	6.603
658.50	6.594
658.69	6.592
658.88	6.599
659.07	6.592
659.26	6.585
659.44	6.580
659.63	6.600
659.82	6.673
660.01	6.676
660.20	6.671
660.38	6.682
660.57	6.712
660.76	6.714
660.95	6.731
661.14	6.754
661.32	6.761
661.51	6.780
661.70	6.785
661.89	6.775
662.08	6.806
662.26	6.808
662.45	6.810
662.64	6.803
662.83	6.832
663.01	6.831
663.20	6.842
663.39	6.837
663.58	6.839
663.77	6.837
663.95	6.846
664.14	6.839
664.33	6.883
664.52	6.889
664.70	6.905
664.89	6.915
665.08	6.923
665.27	6.921
665.45	6.954
665.64	6.953
665.83	6.961
666.02	6.970
666.20	6.979
666.39	6.962
666.58	6.978
666.77	6.979
666.95	6.977
667.14	6.990
667.33	7.034
667.52	7.025
667.70	7.027
667.89	7.038
668.08	7.056
668.27	7.066
668.45	7.060
668.64	7.066
668.83	7.067
669.02	7.052
669.20	7.035
669.39	7.000
669.58	7.011
669.77	7.031
669.95	7.032
670.14	7.023
670.33	7.037
670.51	7.069
670.70	7.083
670.89	7.095
671.08	7.137
671.26	7.167
671.45	7.182
671.64	7.184
671.82	7.213
672.01	7.231
672.20	7.226
672.39	7.226
672.57	7.246
672.76	7.246
672.95	7.256
673.13	7.252
673.32	7.279
673.51	7.283
673.70	7.263
673.88	7.254
674.07	7.261
674.26	7.274
674.44	7.299
674.63	7.271
674.82	7.296
675.00	7.278
675.19	7.293
675.38	7.274
675.56	7.293
675.75	7.339
675.94	7.340
676.12	7.329
676.31	7.337
676.50	7.309
676.69	7.342
676.87	7.363
677.06	7.400
677.25	7.389
677.43	7.401
677.62	7.401
677.81	7.397
677.99	7.416
678.18	7.435
678.37	7.464
678.55	7.488
678.74	7.471
678.93	7.454
679.11	7.452
679.30	7.450
679.48	7.472
679.67	7.490
679.86	7.504
680.04	7.498
680.23	7.498
680.42	7.480
680.60	7.493
680.79	7.510
680.98	7.516
681.16	7.523
681.35	7.544
681.54	7.518
681.72	7.529
681.91	7.531
682.10	7.551
682.28	7.543
682.47	7.566
682.65	7.578
682.84	7.580
683.03	7.585
683.21	7.605
683.40	7.607
683.59	7.641
683.77	7.626
683.96	7.627
684.14	7.639
684.33	7.651
684.52	7.671
684.70	7.664
684.89	7.672
685.07	7.659
685.26	7.674
685.45	7.649
685.63	7.649
685.82	7.688
686.00	7.705
686.19	7.713
686.38	7.762
686.56	7.777
686.75	7.787
686.93	7.783
687.12	7.803
687.31	7.806
687.49	7.844
687.68	7.841
687.86	7.827
688.05	7.827
688.24	7.827
688.42	7.797
688.61	7.798
688.79	7.805
688.98	7.838
689.17	7.829
689.35	7.830
689.54	7.837
689.72	7.839
689.91	7.847
690.09	7.880
690.28	7.902
690.47	7.901
690.65	7.900
690.84	7.900
691.02	7.889
691.21	7.906
691.39	7.903
691.58	7.931
691.76	7.971
691.95	7.975
692.14	7.967
692.32	7.965
692.51	8.021
692.69	8.046
692.88	8.052
693.06	8.041
693.25	8.053
693.43	8.066
693.62	8.069
693.81	8.052
693.99	8.083
694.18	8.071
694.36	8.057
694.55	8.047
694.73	8.040
694.92	8.060
695.10	8.057
695.29	8.071
695.47	8.098
695.66	8.103
695.84	8.130
696.03	8.114
696.21	8.122
696.40	8.146
696.59	8.151
696.77	8.159
696.96	8.156
697.14	8.191
697.33	8.229
697.51	8.248
697.70	8.259
697.88	8.280
698.07	8.293
698.25	8.304
698.44	8.289
698.62	8.288
698.81	8.267
698.99	8.283
699.18	8.291
699.36	8.280
699.55	8.254
699.73	8.231
699.92	8.203
700.10	8.196
700.29	8.198
700.47	8.218
700.66	8.217
700.84	8.235
701.03	8.231
701.21	8.221
701.40	8.206
701.58	8.234
701.77	8.270
701.95	8.319
702.13	8.327
702.32	8.375
702.50	8.402
702.69	8.416
702.87	8.413
703.06	8.461
703.24	8.500
703.43	8.540
703.61	8.527
703.80	8.526
703.98	8.473
704.17	8.502
704.35	8.480
704.54	8.484
704.72	8.512
704.90	8.535
705.09	8.496
705.27	8.527
705.46	8.538
705.64	8.524
705.83	8.514
706.01	8.564
706.20	8.585
706.38	8.604
706.56	8.594
706.75	8.594
706.93	8.614
707.12	8.637
707.30	8.628
707.49	8.634
707.67	8.677
707.86	8.716
708.04	8.725
708.22	8.696
708.41	8.686
708.59	8.696
708.78	8.697
708.96	8.696
709.14	8.716
709.33	8.711
709.51	8.694
709.70	8.698
709.88	8.697
710.07	8.716
710.25	8.755
710.43	8.780
710.62	8.790
710.80	8.787
710.99	8.820
711.17	8.833
711.35	8.848
711.54	8.858
711.72	8.841
711.91	8.894
712.09	8.906
712.27	8.879
712.46	8.908
712.64	8.922
712.83	8.929
713.01	8.929
713.19	8.935
713.38	8.952
713.56	8.961
713.75	9.002
713.93	8.962
714.11	8.935
714.30	8.983
714.48	8.961
714.66	8.960
714.85	8.986
715.03	8.983
715.22	8.959
715.40	8.969
715.58	9.015
715.77	9.044
715.95	9.063
716.13	9.071
716.32	9.033
716.50	9.026
716.68	9.045
716.87	9.070
717.05	9.074
717.24	9.110
717.42	9.091
717.60	9.060
717.79	9.060
717.97	9.056
718.15	9.084
718.34	9.115
718.52	9.175
718.70	9.189
718.89	9.181
719.07	9.158
719.25	9.136
719.44	9.158
719.62	9.180
719.80	9.155
719.99	9.164
720.17	9.152
720.35	9.182
720.54	9.142
720.72	9.141
720.90	9.126
721.09	9.193
721.27	9.223
721.45	9.216
721.64	9.242
721.82	9.282
722.00	9.312
722.19	9.337
722.37	9.325
722.55	9.358
722.74	9.348
722.92	9.368
723.10	9.341
723.28	9.374
723.47	9.426
723.65	9.437
723.83	9.438
724.02	9.411
724.20	9.435
724.38	9.468
724.57	9.462
724.75	9.506
724.93	9.518
725.11	9.537
725.30	9.494
725.48	9.497
725.66	9.493
725.85	9.490
726.03	9.513
726.21	9.546
726.39	9.530
726.58	9.564
726.76	9.565
726.94	9.600
727.13	9.603
727.31	9.638
727.49	9.612
727.67	9.628
727.86	9.671
728.04	9.711
728.22	9.655
728.40	9.689
728.59	9.672
728.77	9.675
728.95	9.659
729.13	9.676
729.32	9.666
729.50	9.693
729.68	9.680
729.86	9.669
730.05	9.635
730.23	9.665
730.41	9.641
730.59	9.641
730.78	9.650
730.96	9.659
731.14	9.644
731.32	9.703
731.51	9.700
731.69	9.718
731.87	9.724
732.05	9.756
732.24	9.769
732.42	9.825
732.60	9.845
732.78	9.825
732.97	9.809
733.15	9.830
733.33	9.829
733.51	9.849
733.69	9.818
733.88	9.787
734.06	9.767
734.24	9.756
734.42	9.746
734.60	9.739
734.79	9.745
734.97	9.816
735.15	9.816
735.33	9.809
735.52	9.838
735.70	9.843
735.88	9.848
736.06	9.882
736.24	9.886
736.43	9.889
736.61	9.937
736.79	9.969
736.97	9.962
737.15	9.989
737.34	9.981
737.52	9.951
737.70	9.996
737.88	10.083
738.06	10.047
738.24	10.111
738.43	10.108
738.61	10.104
738.79	10.152
738.97	10.157
739.15	10.140
739.33	10.150
739.52	10.160
739.70	10.149
739.88	10.135
740.06	10.157
740.24	10.118
740.42	10.118
740.61	10.085
740.79	10.063
740.97	10.027
741.15	10.082
741.33	10.104
741.51	10.115
741.70	10.166
741.88	10.176
742.06	10.217
742.24	10.288
742.42	10.291
742.60	10.312
742.78	10.284
742.97	10.318
743.15	10.288
743.33	10.283
743.51	10.287
743.69	10.310
743.87	10.363
744.05	10.358
744.24	10.319
744.42	10.351
744.60	10.387
744.78	10.422
744.96	10.455
745.14	10.477
745.32	10.496
745.50	10.536
745.69	10.497
745.87	10.451
746.05	10.456
746.23	10.527
746.41	10.524
746.59	10.524
746.77	10.502
746.95	10.483
747.13	10.479
747.32	10.479
747.50	10.475
747.68	10.552
747.86	10.590
748.04	10.649
748.22	10.574
748.40	10.635
748.58	10.637
748.76	10.649
748.94	10.681
749.13	10.719
749.31	10.696
749.49	10.708
749.67	10.692
749.85	10.691
750.03	10.662
750.21	10.728
750.39	10.733
750.57	10.770
750.75	10.764
750.93	10.787
751.11	10.779
751.30	10.850
751.48	10.857
751.66	10.864
751.84	10.865
752.02	10.873
752.20	10.929
752.38	10.886
752.56	10.872
752.74	10.934
752.92	10.898
753.10	10.939
753.28	10.911
753.46	10.880
753.64	10.852
753.82	10.850
754.00	10.820
754.18	10.770
754.37	10.765
754.55	10.805
754.73	10.751
754.91	10.787
755.09	10.708
755.27	10.782
755.45	10.794
755.63	10.818
755.81	10.830
755.99	10.850
756.17	10.779
756.35	10.790
756.53	10.742
756.71	10.821
756.89	10.827
757.07	10.866
757.25	10.849
757.43	10.895
757.61	10.850
757.79	10.858
757.97	10.875
758.15	10.997
758.33	11.040
758.51	11.123
758.69	11.134
758.87	11.149
759.05	11.169
759.23	11.152
759.41	11.171
759.59	11.265
759.77	11.237
759.95	11.310
760.13	11.280
760.31	11.289
760.49	11.247
760.67	11.314
760.85	11.301
761.03	11.321
761.21	11.350
761.39	11.397
761.57	11.406
761.75	11.458
761.93	11.438
762.11	11.412
762.29	11.385
762.47	11.409
762.65	11.329
762.83	11.322
763.01	11.346
763.19	11.358
763.37	11.356
763.55	11.350
763.73	11.379
763.91	11.435
764.09	11.482
764.27	11.521
764.45	11.490
764.63	11.490
764.81	11.521
764.99	11.516
765.16	11.484
765.34	11.465
765.52	11.453
765.70	11.431
765.88	11.398
766.06	11.386
766.24	11.360
766.42	11.385
766.60	11.395
766.78	11.375
766.96	11.385
767.14	11.422
767.32	11.428
767.50	11.412
767.68	11.421
767.86	11.409
768.03	11.440
768.21	11.475
768.39	11.446
768.57	11.449
768.75	11.486
768.93	11.484
769.11	11.499
769.29	11.509
769.47	11.528
769.65	11.575
769.83	11.608
770.01	11.656
770.19	11.632
770.36	11.735
770.54	11.831
770.72	11.822
770.90	11.814
771.08	11.842
771.26	11.839
771.44	11.882
771.62	11.883
771.80	11.872
771.98	11.817
772.15	11.863
772.33	11.827
772.51	11.776
772.69	11.792
772.87	11.836
773.05	11.828
773.23	11.865
773.41	11.885
773.58	11.863
773.76	11.922
773.94	11.883
774.12	11.849
774.30	11.870
774.48	11.816
774.66	11.758
774.84	11.710
775.01	11.711
775.19	11.704
775.37	11.737
775.55	11.711
775.73	11.669
775.91	11.720
776.09	11.769
776.26	11.706
776.44	11.745
776.62	11.773
776.80	11.746
776.98	11.782
777.16	11.780
777.34	11.781
777.51	11.789
777.69	11.809
777.87	11.817
778.05	11.805
778.23	11.867
778.41	11.902
778.58	11.961
778.76	12.051
778.94	12.052
779.12	12.122
779.30	12.105
779.48	12.126
779.65	12.182
779.83	12.128
780.01	12.167
780.19	12.242
780.37	12.238
780.55	12.237
780.72	12.276
780.90	12.250
781.08	12.292
781.26	12.419
781.44	12.496
781.61	12.529
781.79	12.646
781.97	12.682
782.15	12.606
782.33	12.671
782.50	12.621
782.68	12.639
782.86	12.686
783.04	12.635
783.22	12.546
783.39	12.481
783.57	12.405
783.75	12.325
783.93	12.352
784.11	12.386
784.28	12.205
784.46	12.213
784.64	12.197
784.82	12.163
784.99	12.126
785.17	12.089
785.35	12.170
785.53	12.216
785.71	12.272
785.88	12.206
786.06	12.279
786.24	12.429
786.42	12.517
786.59	12.434
786.77	12.459
786.95	12.492
787.13	12.544
787.30	12.544
787.48	12.581
787.66	12.651
787.84	12.649
788.01	12.596
788.19	12.618
788.37	12.616
788.55	12.696
788.72	12.774
788.90	12.810
789.08	12.805
789.26	12.796
789.43	12.772
789.61	12.767
789.79	12.752
789.97	12.765
790.14	12.791
790.32	12.805
790.50	12.822
790.68	12.785
790.85	12.778
791.03	12.801
791.21	12.767
791.38	12.787
791.56	12.749
791.74	12.846
791.92	12.851
792.09	12.792
792.27	12.837
792.45	12.827
792.62	12.793
792.80	12.730
792.98	12.631
793.16	12.681
793.33	12.663
793.51	12.699
793.69	12.645
793.86	12.616
794.04	12.678
794.22	12.593
794.39	12.611
794.57	12.668
794.75	12.808
794.93	12.939
795.10	12.922
795.28	12.950
795.46	12.979
795.63	13.025
795.81	13.158
795.99	13.077
796.16	13.133
796.34	13.184
796.52	13.118
796.69	13.096
796.87	13.123
797.05	13.229
797.22	13.219
797.40	13.289
797.58	13.250
797.75	13.192
797.93	13.272
798.11	13.363
798.28	13.383
798.46	13.449
798.64	13.410
798.81	13.369
798.99	13.286
799.17	13.334
799.34	13.184
799.52	13.252
799.70	13.240
799.87	13.341
800.05	13.131
800.22	13.070
800.40	13.013
800.58	13.028
800.75	13.124
800.93	13.149
801.11	13.111
801.28	13.236
801.46	13.105
801.63	13.127
801.81	13.116
801.99	13.315
802.16	13.288
802.34	13.456
802.52	13.477
802.69	13.572
802.87	13.556
803.04	13.564
803.22	13.469
803.40	13.565
803.57	13.602
803.75	13.495
803.93	13.460
804.10	13.565
804.28	13.455
804.45	13.526
804.63	13.424
804.81	13.515
804.98	13.581
805.16	13.699
805.33	13.780
805.51	13.855
805.68	13.943
805.86	13.993
806.04	13.865
806.21	13.999
806.39	13.982
806.56	13.950
806.74	13.901
806.92	13.918
807.09	13.891
807.27	13.885
807.44	13.717
807.62	13.763
807.79	13.760
807.97	13.898
808.15	13.840
808.32	13.849
808.50	13.858
808.67	13.882
808.85	13.867
809.02	13.874
809.20	13.788
809.38	13.945
809.55	13.883
809.73	13.881
809.90	13.843
810.08	13.760
810.25	13.715
810.43	13.782
810.60	13.783
810.78	13.804
810.95	13.747
811.13	13.854
811.31	13.738
811.48	13.763
811.66	13.778
811.83	13.734
812.01	13.758
812.18	13.761
812.36	13.628
812.53	13.624
812.71	13.627
812.88	13.699
813.06	13.672
813.23	13.761
813.41	13.854
813.58	13.818
813.76	13.905
813.93	13.901
814.11	13.842
814.28	14.017
814.46	14.108
814.63	14.161
814.81	14.142
814.98	14.145
815.16	14.174
815.33	14.095
815.51	14.233
815.68	14.242
815.86	14.339
816.03	14.463
816.21	14.413
816.38	14.322
816.56	14.266
816.73	14.301
816.91	14.369
817.08	14.480
817.26	14.390
817.43	14.398
817.61	14.287
817.78	14.216
817.96	14.146
818.13	14.097
818.31	14.066
818.48	14.105
818.66	14.166
818.83	14.215
819.01	14.020
819.18	14.109
819.36	14.145
819.53	14.269
819.70	14.272
819.88	14.501
820.05	14.567
820.23	14.772
820.40	14.744
820.58	14.689
820.75	14.577
820.93	14.646
821.10	14.700
821.28	14.740
821.45	14.782
821.62	14.905
821.80	14.882
821.97	14.928
822.15	14.936
822.32	15.025
822.50	15.133
822.67	15.345
822.84	15.408
823.02	15.385
823.19	15.264
823.37	15.161
823.54	15.059
823.72	14.950
823.89	14.875
824.06	14.818
824.24	14.766
824.41	14.713
824.59	14.645
824.76	14.586
824.94	14.530
825.11	14.491
825.28	14.466
825.46	14.441
825.63	14.466
825.81	14.484
825.98	14.519
826.15	14.559
826.33	14.589
826.50	14.605
826.68	14.636
826.85	14.638
827.02	14.638
827.20	14.705
827.37	14.779
827.54	14.870
827.72	14.984
827.89	15.065
828.07	15.115
828.24	15.155
828.41	15.155
828.59	15.111
828.76	15.085
828.94	15.088
829.11	15.038
829.28	15.024
829.46	14.963
829.63	14.889
829.80	14.833
829.98	14.775
830.15	14.728
830.32	14.739
830.50	14.770
830.67	14.848
830.85	14.913
831.02	14.937
831.19	14.953
831.37	14.986
831.54	15.058
831.71	15.085
831.89	15.199
832.06	15.270
832.23	15.197
832.41	15.186
832.58	15.167
832.75	15.158
832.93	15.201
833.10	15.214
833.27	15.255
833.45	15.286
833.62	15.326
833.79	15.332
833.97	15.384
834.14	15.515
834.31	15.623
834.49	15.720
834.66	15.678
834.83	15.746
835.01	15.684
835.18	15.666
835.35	15.626
835.52	15.536
835.70	15.467
835.87	15.407
836.04	15.356
836.22	15.280
836.39	15.187
836.56	15.201
836.74	15.128
836.91	15.126
837.08	15.070
837.25	15.060
837.43	15.089
837.60	15.104
837.77	15.093
837.95	15.190
838.12	15.201
838.29	15.300
838.46	15.250
838.64	15.269
838.81	15.218
838.98	15.279
839.16	15.296
839.33	15.351
839.50	15.278
839.67	15.482
839.85	15.326
840.02	15.602
840.19	15.409
840.36	15.600
840.54	15.554
840.71	15.716
840.88	15.666
841.06	15.622
841.23	15.650
841.40	15.755
841.57	15.688
841.75	15.661
841.92	15.481
842.09	15.500
842.26	15.411
842.44	15.387
842.61	15.319
842.78	15.447
842.95	15.583
843.12	15.594
843.30	15.515
843.47	15.554
843.64	15.583
843.81	15.825
843.99	15.920
844.16	16.058
844.33	16.093
844.50	16.190
844.68	16.067
844.85	15.926
845.02	16.064
845.19	16.231
845.36	16.155
845.54	16.066
845.71	15.858
845.88	15.764
846.05	15.397
846.22	15.318
846.40	15.451
846.57	15.517
846.74	15.297
846.91	14.861
847.08	15.143
847.26	15.209
847.43	15.478
847.60	15.364
847.77	15.489
847.94	15.715
848.12	15.962
848.29	15.960
848.46	15.802
848.63	16.313
848.80	16.688
848.98	16.458
849.15	16.478
849.32	16.615
849.49	16.575
849.66	16.420
849.83	16.441
850.01	16.605
850.18	16.261
850.35	16.397
850.52	16.216
850.69	15.963
850.86	15.835
851.04	15.775
851.21	15.556
851.38	15.695
851.55	16.020
851.72	15.960
851.89	15.962
852.06	16.174
852.24	16.179
852.41	16.126
852.58	16.065
852.75	16.245
852.92	16.248
853.09	16.452
853.26	16.388
853.44	16.122
853.61	15.896
853.78	15.538
853.95	15.675
854.12	15.716
854.29	15.982
854.46	16.403
854.64	16.344
854.81	16.338
854.98	16.047
855.15	16.014
855.32	16.079
855.49	16.235
855.66	16.045
855.83	15.883
856.00	15.992
856.18	15.848
856.35	15.406
856.52	15.568
856.69	15.725
856.86	15.730
857.03	15.939
857.20	16.146
857.37	16.299
857.54	16.960
857.71	16.735
857.89	16.771
858.06	16.643
858.23	16.528
858.40	16.232
858.57	16.393
858.74	16.306
858.91	16.307
859.08	16.067
859.25	16.151
859.42	15.424
859.59	16.037
859.76	15.998
859.94	16.020
860.11	16.374
860.28	16.808
860.45	16.728
860.62	16.936
860.79	16.920
860.96	17.313
861.13	16.677
861.30	16.980
861.47	16.362
861.64	16.185
861.81	15.896
861.98	15.886
862.15	15.784
862.32	15.681
862.49	15.603
862.66	15.793
862.83	15.595
863.01	16.169
863.18	16.121
863.35	16.310
863.52	16.580
863.69	16.769
863.86	16.738
864.03	16.860
864.20	17.024
864.37	16.879
864.54	16.595
864.71	16.927
864.88	16.864
865.05	17.038
865.22	17.017
865.39	16.846
865.56	16.863
865.73	17.161
865.90	17.079
866.07	17.038
866.24	17.195
866.41	17.475
866.58	16.972
866.75	16.884
866.92	16.904
867.09	16.996
867.26	17.344
867.43	17.313
867.60	17.368
867.77	17.112
867.94	17.008
868.11	17.248
868.28	17.499
868.45	17.791
868.62	17.948
868.79	18.026
868.96	18.425
869.13	18.221
869.30	18.350
869.47	18.009
869.64	17.897
869.81	18.070
869.98	17.786
870.15	17.435
870.32	17.189
870.49	16.992
870.66	17.029
870.83	16.527
871.00	16.953
871.16	16.990
871.33	17.219
871.50	17.277
871.67	17.313
871.84	17.362
872.01	17.408
872.18	17.643
872.35	18.176
872.52	18.157
872.69	18.209
872.86	17.931
873.03	18.026
873.20	17.983
873.37	17.988
873.54	17.988
873.71	17.961
873.88	18.006
874.05	17.818
874.21	17.647
874.38	17.351
874.55	17.306
874.72	17.099
874.89	17.044
875.06	17.050
875.23	17.520
875.40	17.451
875.57	17.642
875.74	17.450
875.91	17.693
876.08	17.589
876.24	17.769
876.41	17.921
876.58	18.296
876.75	18.138
876.92	18.086
877.09	17.747
877.26	17.908
877.43	17.590
877.60	17.811
877.77	17.611
877.93	17.837
878.10	17.997
878.27	18.001
878.44	17.408
878.61	17.815
878.78	17.784
878.95	17.759
879.12	17.642
879.28	18.005
879.45	17.990
879.62	18.072
879.79	17.618
879.96	17.924
880.13	17.752
880.30	18.209
880.47	17.982
880.63	18.023
880.80	18.147
880.97	18.107
881.14	17.989
881.31	18.106
881.48	18.132
881.65	18.482
881.81	18.505
881.98	18.907
882.15	18.929
882.32	18.997
882.49	18.967
882.66	18.938
882.82	18.852
882.99	18.774
883.16	18.670
883.33	18.627
883.50	18.512
883.67	18.451
883.83	18.361
884.00	18.297
884.17	18.228
884.34	18.159
884.51	18.112
884.68	18.073
884.84	18.046
885.01	18.033
885.18	17.992
885.35	18.021
885.52	18.001
885.68	17.970
885.85	17.949
886.02	17.793
886.19	17.980
886.36	18.044
886.53	17.853
886.69	17.774
>>>>>End Spectral Data<<<<<
