OOIBase32 Version 2.0.6.5 Data File
++++++++++++++++++++++++++++++++++++
Date: 03-24-2011, 10:55:14
User: Valued Ocean Optics Customer
Spectrometer Serial Number: USB4C01507
Spectrometer Channel: Master
Integration Time (msec): 46
Spectra Averaged: 30
Boxcar Smoothing: 5
Correct for Electrical Dark: Enabled
Time Normalized: Disabled
Dual-beam Reference: Disabled
Reference Channel: Master
Temperature: Not acquired
Spectrometer Type: S4000
ADC Type: USB4000
Number of Pixels in File: 3648
Graph Title: 
>>>>>Begin Spectral Data<<<<<
179.17	1164.946
179.39	2775.086
179.60	164.027
179.82	-247.383
180.03	-129.285
180.24	20.591
180.46	-14.868
180.67	328.917
180.89	73.956
181.10	-83.206
181.31	33.835
181.53	-155.211
181.74	23.304
181.96	53.215
182.17	-71.908
182.39	-2.027
182.60	86.251
182.81	177.029
183.03	193.197
183.24	-311.720
183.46	-0.423
183.67	6.447
183.88	-8.449
184.10	-0.450
184.31	-9.064
184.53	1.688
184.74	-3.841
184.96	9.651
185.17	10.304
185.38	17.837
185.60	20.674
185.81	22.094
186.03	17.349
186.24	22.194
186.45	28.215
186.67	30.429
186.88	28.383
187.10	25.357
187.31	25.337
187.52	30.719
187.74	21.510
187.95	19.326
188.17	10.954
188.38	19.257
188.59	24.257
188.81	10.919
189.02	14.935
189.24	16.046
189.45	27.038
189.66	19.561
189.88	6.876
190.09	13.620
190.30	10.809
190.52	16.450
190.73	9.847
190.95	3.725
191.16	11.830
191.37	7.315
191.59	-0.201
191.80	-8.617
192.02	0.283
192.23	9.202
192.44	3.081
192.66	9.510
192.87	2.707
193.08	1.029
193.30	-5.408
193.51	-4.140
193.73	4.873
193.94	12.141
194.15	13.842
194.37	13.032
194.58	16.882
194.79	12.877
195.01	9.985
195.22	11.450
195.44	10.140
195.65	18.698
195.86	22.858
196.08	12.300
196.29	12.221
196.50	8.044
196.72	9.269
196.93	6.074
197.14	6.657
197.36	8.899
197.57	3.315
197.79	4.880
198.00	0.523
198.21	-3.142
198.43	3.651
198.64	2.396
198.85	2.595
199.07	1.099
199.28	4.178
199.49	0.419
199.71	-0.152
199.92	8.836
200.13	8.806
200.35	10.871
200.56	10.986
200.78	8.510
200.99	2.735
201.20	3.184
201.42	3.750
201.63	-5.847
201.84	5.043
202.06	9.434
202.27	10.835
202.48	15.536
202.70	9.507
202.91	8.668
203.12	4.287
203.34	7.595
203.55	9.664
203.76	9.020
203.98	15.002
204.19	14.583
204.40	10.159
204.62	3.752
204.83	-2.390
205.04	2.521
205.26	0.145
205.47	2.497
205.68	0.388
205.90	-2.202
206.11	-2.152
206.32	-5.710
206.54	-10.342
206.75	-9.307
206.96	-6.818
207.18	-1.384
207.39	0.989
207.60	7.396
207.82	6.623
208.03	8.388
208.24	11.257
208.45	13.282
208.67	10.314
208.88	8.406
209.09	2.232
209.31	4.042
209.52	0.599
209.73	-1.768
209.95	-3.373
210.16	2.871
210.37	3.977
210.59	5.407
210.80	5.230
211.01	6.027
211.23	10.621
211.44	12.678
211.65	12.232
211.86	13.440
212.08	14.711
212.29	15.434
212.50	11.521
212.72	9.434
212.93	6.424
213.14	5.307
213.36	8.212
213.57	4.702
213.78	5.983
213.99	5.407
214.21	8.470
214.42	9.604
214.63	8.794
214.85	5.321
215.06	5.064
215.27	5.761
215.49	4.527
215.70	1.987
215.91	1.690
216.12	2.706
216.34	6.132
216.55	2.623
216.76	3.408
216.98	-0.946
217.19	2.473
217.40	5.648
217.61	6.287
217.83	9.208
218.04	10.429
218.25	9.208
218.47	8.116
218.68	5.751
218.89	6.745
219.10	5.462
219.32	5.840
219.53	5.364
219.74	5.699
219.95	4.512
220.17	2.666
220.38	3.321
220.59	4.598
220.81	4.761
221.02	6.445
221.23	6.728
221.44	6.196
221.66	7.056
221.87	8.166
222.08	7.263
222.29	8.452
222.51	8.791
222.72	8.373
222.93	8.025
223.14	8.409
223.36	6.460
223.57	5.362
223.78	4.785
223.99	5.303
224.21	3.957
224.42	3.886
224.63	2.705
224.84	2.061
225.06	2.447
225.27	2.998
225.48	2.907
225.69	3.420
225.91	3.542
226.12	3.096
226.33	3.274
226.54	3.024
226.76	3.012
226.97	3.113
227.18	2.920
227.39	2.729
227.61	2.797
227.82	2.740
228.03	2.703
228.24	2.813
228.46	2.956
228.67	2.900
228.88	2.953
229.09	2.853
229.31	2.861
229.52	2.974
229.73	3.096
229.94	2.897
230.16	2.941
230.37	2.960
230.58	2.853
230.79	2.770
231.00	2.997
231.22	3.083
231.43	3.237
231.64	3.206
231.85	3.481
232.07	3.405
232.28	3.540
232.49	3.528
232.70	3.353
232.91	3.402
233.13	3.595
233.34	3.432
233.55	3.828
233.76	3.862
233.98	4.078
234.19	3.990
234.40	3.952
234.61	4.047
234.82	4.119
235.04	3.957
235.25	4.233
235.46	4.068
235.67	3.731
235.88	3.474
236.10	3.427
236.31	3.318
236.52	3.017
236.73	3.605
236.94	3.456
237.16	3.300
237.37	3.798
237.58	3.227
237.79	3.441
238.01	3.192
238.22	3.075
238.43	3.164
238.64	3.311
238.85	3.398
239.06	2.855
239.28	2.875
239.49	2.823
239.70	2.553
239.91	2.573
240.12	2.339
240.34	2.497
240.55	2.531
240.76	2.587
240.97	2.467
241.18	2.539
241.40	2.587
241.61	2.516
241.82	2.602
242.03	2.783
242.24	2.812
242.45	2.850
242.67	2.927
242.88	2.921
243.09	2.740
243.30	2.616
243.51	2.696
243.73	2.702
243.94	2.800
244.15	2.633
244.36	2.544
244.57	2.647
244.78	2.668
245.00	2.486
245.21	2.400
245.42	2.455
245.63	2.408
245.84	2.361
246.05	2.266
246.27	2.255
246.48	2.230
246.69	2.167
246.90	2.175
247.11	2.130
247.32	2.145
247.54	2.172
247.75	2.143
247.96	2.153
248.17	2.144
248.38	2.284
248.59	2.259
248.81	2.320
249.02	2.410
249.23	2.243
249.44	2.152
249.65	2.291
249.86	1.930
250.07	2.010
250.29	2.040
250.50	1.863
250.71	1.672
250.92	1.587
251.13	1.578
251.34	1.632
251.55	1.721
251.77	1.865
251.98	1.774
252.19	1.914
252.40	1.819
252.61	1.781
252.82	1.690
253.03	1.721
253.25	1.797
253.46	1.750
253.67	1.658
253.88	1.519
254.09	1.475
254.30	1.355
254.51	1.484
254.73	1.430
254.94	1.508
255.15	1.682
255.36	1.657
255.57	1.618
255.78	1.532
255.99	1.488
256.20	1.797
256.42	1.929
256.63	1.929
256.84	1.902
257.05	2.017
257.26	2.121
257.47	2.083
257.68	2.058
257.89	2.110
258.10	2.168
258.32	2.167
258.53	2.047
258.74	1.899
258.95	1.901
259.16	1.905
259.37	1.898
259.58	1.861
259.79	1.897
260.00	1.875
260.22	1.867
260.43	1.889
260.64	1.812
260.85	1.841
261.06	1.978
261.27	2.015
261.48	1.968
261.69	1.903
261.90	1.799
262.12	1.798
262.33	1.834
262.54	1.891
262.75	1.800
262.96	1.860
263.17	1.762
263.38	1.692
263.59	1.738
263.80	1.791
264.01	1.853
264.22	1.946
264.44	1.872
264.65	1.890
264.86	1.759
265.07	1.642
265.28	1.830
265.49	1.925
265.70	1.811
265.91	1.730
266.12	1.739
266.33	1.754
266.54	1.768
266.75	1.767
266.97	1.798
267.18	1.851
267.39	1.953
267.60	1.828
267.81	1.688
268.02	1.693
268.23	1.770
268.44	1.697
268.65	1.672
268.86	1.690
269.07	1.778
269.28	1.664
269.49	1.710
269.70	1.661
269.92	1.702
270.13	1.760
270.34	1.863
270.55	1.811
270.76	1.890
270.97	1.972
271.18	2.022
271.39	1.944
271.60	2.029
271.81	1.994
272.02	2.056
272.23	2.070
272.44	2.055
272.65	1.968
272.86	1.996
273.07	1.976
273.28	1.940
273.49	1.876
273.71	1.873
273.92	1.866
274.13	1.786
274.34	1.655
274.55	1.686
274.76	1.705
274.97	1.747
275.18	1.669
275.39	1.682
275.60	1.718
275.81	1.833
276.02	1.776
276.23	1.740
276.44	1.753
276.65	1.874
276.86	1.736
277.07	1.721
277.28	1.728
277.49	1.762
277.70	1.707
277.91	1.617
278.12	1.452
278.33	1.442
278.54	1.434
278.75	1.480
278.96	1.415
279.17	1.478
279.39	1.494
279.60	1.512
279.81	1.478
280.02	1.447
280.23	1.460
280.44	1.434
280.65	1.491
280.86	1.448
281.07	1.539
281.28	1.605
281.49	1.593
281.70	1.633
281.91	1.618
282.12	1.640
282.33	1.741
282.54	1.720
282.75	1.820
282.96	1.900
283.17	1.944
283.38	1.833
283.59	1.771
283.80	1.693
284.01	1.548
284.22	1.524
284.43	1.515
284.64	1.472
284.85	1.534
285.06	1.525
285.27	1.498
285.48	1.459
285.69	1.461
285.90	1.498
286.11	1.569
286.32	1.691
286.53	1.699
286.74	1.739
286.95	1.712
287.16	1.739
287.37	1.719
287.58	1.615
287.79	1.663
288.00	1.700
288.21	1.665
288.42	1.628
288.63	1.663
288.84	1.674
289.05	1.691
289.26	1.766
289.47	1.716
289.68	1.686
289.89	1.736
290.10	1.643
290.31	1.589
290.51	1.567
290.72	1.566
290.93	1.528
291.14	1.491
291.35	1.447
291.56	1.374
291.77	1.317
291.98	1.338
292.19	1.408
292.40	1.531
292.61	1.559
292.82	1.584
293.03	1.695
293.24	1.633
293.45	1.691
293.66	1.716
293.87	1.719
294.08	1.709
294.29	1.769
294.50	1.626
294.71	1.633
294.92	1.699
295.13	1.670
295.34	1.550
295.55	1.567
295.76	1.500
295.96	1.459
296.17	1.514
296.38	1.598
296.59	1.538
296.80	1.566
297.01	1.536
297.22	1.487
297.43	1.493
297.64	1.502
297.85	1.480
298.06	1.461
298.27	1.483
298.48	1.437
298.69	1.416
298.90	1.395
299.11	1.439
299.32	1.406
299.53	1.411
299.73	1.415
299.94	1.502
300.15	1.476
300.36	1.580
300.57	1.587
300.78	1.609
300.99	1.544
301.20	1.522
301.41	1.502
301.62	1.618
301.83	1.570
302.04	1.584
302.25	1.540
302.45	1.546
302.66	1.466
302.87	1.411
303.08	1.375
303.29	1.437
303.50	1.496
303.71	1.557
303.92	1.450
304.13	1.497
304.34	1.512
304.55	1.479
304.76	1.525
304.96	1.547
305.17	1.628
305.38	1.636
305.59	1.534
305.80	1.561
306.01	1.491
306.22	1.474
306.43	1.475
306.64	1.384
306.85	1.350
307.06	1.376
307.26	1.412
307.47	1.365
307.68	1.388
307.89	1.427
308.10	1.369
308.31	1.409
308.52	1.451
308.73	1.424
308.94	1.517
309.14	1.573
309.35	1.539
309.56	1.525
309.77	1.493
309.98	1.472
310.19	1.482
310.40	1.482
310.61	1.455
310.82	1.469
311.02	1.450
311.23	1.389
311.44	1.306
311.65	1.269
311.86	1.242
312.07	1.251
312.28	1.248
312.49	1.197
312.69	1.200
312.90	1.150
313.11	1.122
313.32	1.132
313.53	1.176
313.74	1.192
313.95	1.163
314.16	1.169
314.36	1.179
314.57	1.239
314.78	1.329
314.99	1.351
315.20	1.407
315.41	1.385
315.62	1.317
315.82	1.325
316.03	1.376
316.24	1.454
316.45	1.507
316.66	1.464
316.87	1.471
317.08	1.434
317.28	1.417
317.49	1.399
317.70	1.381
317.91	1.469
318.12	1.496
318.33	1.499
318.54	1.443
318.74	1.392
318.95	1.410
319.16	1.355
319.37	1.362
319.58	1.330
319.79	1.289
319.99	1.322
320.20	1.338
320.41	1.275
320.62	1.264
320.83	1.264
321.04	1.264
321.24	1.252
321.45	1.307
321.66	1.299
321.87	1.342
322.08	1.362
322.29	1.343
322.49	1.323
322.70	1.278
322.91	1.301
323.12	1.335
323.33	1.330
323.54	1.305
323.74	1.241
323.95	1.237
324.16	1.267
324.37	1.261
324.58	1.277
324.79	1.241
324.99	1.255
325.20	1.302
325.41	1.289
325.62	1.265
325.83	1.307
326.03	1.262
326.24	1.278
326.45	1.259
326.66	1.238
326.87	1.238
327.07	1.263
327.28	1.268
327.49	1.186
327.70	1.178
327.91	1.218
328.11	1.183
328.32	1.255
328.53	1.281
328.74	1.275
328.95	1.286
329.15	1.277
329.36	1.329
329.57	1.322
329.78	1.338
329.99	1.341
330.19	1.294
330.40	1.349
330.61	1.305
330.82	1.230
331.03	1.187
331.23	1.222
331.44	1.257
331.65	1.178
331.86	1.225
332.07	1.242
332.27	1.254
332.48	1.301
332.69	1.258
332.90	1.279
333.10	1.284
333.31	1.321
333.52	1.279
333.73	1.277
333.94	1.301
334.14	1.282
334.35	1.253
334.56	1.234
334.77	1.192
334.97	1.230
335.18	1.217
335.39	1.292
335.60	1.276
335.80	1.269
336.01	1.238
336.22	1.178
336.43	1.202
336.64	1.221
336.84	1.245
337.05	1.272
337.26	1.222
337.47	1.204
337.67	1.178
337.88	1.168
338.09	1.198
338.30	1.220
338.50	1.261
338.71	1.265
338.92	1.277
339.13	1.281
339.33	1.268
339.54	1.245
339.75	1.268
339.96	1.261
340.16	1.253
340.37	1.258
340.58	1.258
340.79	1.260
340.99	1.205
341.20	1.163
341.41	1.127
341.62	1.138
341.82	1.162
342.03	1.149
342.24	1.148
342.44	1.159
342.65	1.147
342.86	1.102
343.07	1.094
343.27	1.153
343.48	1.173
343.69	1.176
343.90	1.204
344.10	1.182
344.31	1.174
344.52	1.200
344.72	1.169
344.93	1.164
345.14	1.190
345.35	1.173
345.55	1.184
345.76	1.176
345.97	1.193
346.18	1.148
346.38	1.193
346.59	1.179
346.80	1.160
347.00	1.173
347.21	1.190
347.42	1.192
347.62	1.181
347.83	1.120
348.04	1.115
348.25	1.082
348.45	1.103
348.66	1.123
348.87	1.165
349.07	1.122
349.28	1.123
349.49	1.125
349.70	1.163
349.90	1.183
350.11	1.189
350.32	1.182
350.52	1.215
350.73	1.211
350.94	1.209
351.14	1.202
351.35	1.214
351.56	1.230
351.76	1.221
351.97	1.144
352.18	1.172
352.39	1.180
352.59	1.218
352.80	1.211
353.01	1.244
353.21	1.193
353.42	1.178
353.63	1.157
353.83	1.137
354.04	1.112
354.25	1.126
354.45	1.092
354.66	1.092
354.87	1.057
355.07	1.040
355.28	0.996
355.49	1.040
355.69	1.067
355.90	1.119
356.11	1.109
356.31	1.151
356.52	1.168
356.73	1.195
356.93	1.216
357.14	1.211
357.35	1.233
357.55	1.241
357.76	1.195
357.97	1.133
358.17	1.104
358.38	1.144
358.59	1.127
358.79	1.105
359.00	1.092
359.21	1.049
359.41	1.025
359.62	0.998
359.83	0.985
360.03	0.998
360.24	1.062
360.44	1.101
360.65	1.077
360.86	1.058
361.06	1.073
361.27	1.071
361.48	1.078
361.68	1.140
361.89	1.187
362.10	1.177
362.30	1.188
362.51	1.170
362.72	1.165
362.92	1.182
363.13	1.179
363.33	1.171
363.54	1.191
363.75	1.190
363.95	1.149
364.16	1.136
364.37	1.186
364.57	1.162
364.78	1.140
364.98	1.105
365.19	1.076
365.40	1.094
365.60	1.078
365.81	1.078
366.02	1.105
366.22	1.105
366.43	1.099
366.63	1.055
366.84	1.056
367.05	1.044
367.25	0.999
367.46	0.998
367.66	1.011
367.87	1.069
368.08	1.041
368.28	1.018
368.49	1.040
368.69	1.007
368.90	1.027
369.11	1.041
369.31	1.077
369.52	1.128
369.72	1.135
369.93	1.120
370.14	1.107
370.34	1.104
370.55	1.081
370.75	1.063
370.96	1.086
371.17	1.100
371.37	1.104
371.58	1.090
371.78	1.071
371.99	1.088
372.20	1.100
372.40	1.096
372.61	1.103
372.81	1.149
373.02	1.139
373.23	1.128
373.43	1.105
373.64	1.092
373.84	1.089
374.05	1.134
374.25	1.139
374.46	1.081
374.67	1.051
374.87	1.077
375.08	1.038
375.28	1.022
375.49	1.019
375.69	1.018
375.90	1.000
376.11	1.007
376.31	0.984
376.52	0.977
376.72	0.992
376.93	0.985
377.13	0.970
377.34	1.003
377.55	1.043
377.75	1.046
377.96	1.020
378.16	1.046
378.37	1.065
378.57	1.089
378.78	1.080
378.98	1.100
379.19	1.125
379.40	1.103
379.60	1.063
379.81	1.043
380.01	1.018
380.22	1.033
380.42	1.046
380.63	1.012
380.83	0.966
381.04	0.940
381.24	0.930
381.45	0.922
381.66	0.926
381.86	0.949
382.07	0.949
382.27	1.006
382.48	0.993
382.68	0.974
382.89	0.994
383.09	1.013
383.30	1.041
383.50	1.038
383.71	1.003
383.91	1.016
384.12	1.006
384.32	1.011
384.53	0.988
384.73	1.006
384.94	0.996
385.15	0.997
385.35	0.991
385.56	0.969
385.76	0.964
385.97	1.007
386.17	1.009
386.38	1.022
386.58	1.005
386.79	1.018
386.99	1.013
387.20	1.032
387.40	1.005
387.61	1.025
387.81	1.032
388.02	1.030
388.22	1.005
388.43	0.985
388.63	0.976
388.84	1.005
389.04	1.005
389.25	1.023
389.45	1.014
389.66	1.050
389.86	1.040
390.07	1.058
390.27	1.049
390.48	1.062
390.68	1.067
390.89	1.086
391.09	1.088
391.30	1.089
391.50	1.086
391.71	1.090
391.91	1.075
392.12	1.100
392.32	1.087
392.53	1.131
392.73	1.133
392.94	1.143
393.14	1.142
393.35	1.133
393.55	1.116
393.75	1.109
393.96	1.096
394.16	1.079
394.37	1.046
394.57	1.056
394.78	1.039
394.98	1.009
395.19	0.984
395.39	0.973
395.60	0.958
395.80	0.958
396.01	0.936
396.21	0.962
396.42	0.979
396.62	0.988
396.83	0.983
397.03	0.983
397.23	1.001
397.44	1.031
397.64	1.031
397.85	1.047
398.05	1.061
398.26	1.086
398.46	1.082
398.67	1.076
398.87	1.062
399.08	1.043
399.28	1.037
399.48	1.030
399.69	1.021
399.89	1.021
400.10	1.017
400.30	1.007
400.51	0.995
400.71	1.000
400.92	1.002
401.12	1.042
401.32	1.067
401.53	1.048
401.73	1.056
401.94	1.069
402.14	1.065
402.35	1.083
402.55	1.075
402.75	1.076
402.96	1.050
403.16	1.062
403.37	1.036
403.57	1.029
403.78	1.059
403.98	1.065
404.18	1.061
404.39	1.044
404.59	1.024
404.80	1.019
405.00	1.026
405.21	1.057
405.41	1.037
405.61	1.037
405.82	1.046
406.02	1.050
406.23	1.051
406.43	1.064
406.63	1.087
406.84	1.106
407.04	1.120
407.25	1.116
407.45	1.102
407.65	1.102
407.86	1.097
408.06	1.084
408.27	1.065
408.47	1.073
408.67	1.045
408.88	1.035
409.08	1.019
409.29	1.007
409.49	1.005
409.69	0.991
409.90	1.016
410.10	1.013
410.31	1.005
410.51	1.012
410.71	0.993
410.92	0.973
411.12	0.971
411.33	0.970
411.53	0.971
411.73	0.959
411.94	0.988
412.14	0.957
412.34	0.969
412.55	0.984
412.75	0.974
412.96	0.987
413.16	1.027
413.36	1.029
413.57	1.020
413.77	1.014
413.97	1.045
414.18	1.031
414.38	1.048
414.59	1.061
414.79	1.052
414.99	1.035
415.20	1.025
415.40	1.021
415.60	1.023
415.81	1.020
416.01	1.030
416.21	1.009
416.42	1.011
416.62	1.019
416.83	1.005
417.03	1.010
417.23	1.020
417.44	1.019
417.64	1.002
417.84	0.998
418.05	1.024
418.25	1.026
418.45	1.032
418.66	1.030
418.86	1.016
419.06	1.029
419.27	1.028
419.47	1.028
419.67	1.036
419.88	1.043
420.08	1.046
420.28	1.025
420.49	1.028
420.69	1.023
420.89	1.010
421.10	1.022
421.30	1.015
421.50	1.018
421.71	1.021
421.91	1.021
422.11	1.013
422.32	1.020
422.52	1.021
422.72	1.026
422.93	1.033
423.13	1.051
423.33	1.042
423.54	1.033
423.74	1.024
423.94	1.025
424.15	1.021
424.35	1.034
424.55	1.021
424.76	1.028
424.96	1.019
425.16	1.009
425.36	1.006
425.57	1.001
425.77	1.004
425.97	1.005
426.18	1.016
426.38	1.017
426.58	1.010
426.79	1.034
426.99	1.015
427.19	1.019
427.39	1.044
427.60	1.029
427.80	1.037
428.00	1.044
428.21	1.070
428.41	1.066
428.61	1.060
428.82	1.065
429.02	1.057
429.22	1.086
429.42	1.080
429.63	1.064
429.83	1.067
430.03	1.065
430.24	1.049
430.44	1.046
430.64	1.053
430.84	1.064
431.05	1.056
431.25	1.059
431.45	1.037
431.65	1.026
431.86	1.024
432.06	1.032
432.26	1.026
432.47	1.042
432.67	1.029
432.87	1.012
433.07	1.009
433.28	1.017
433.48	1.008
433.68	1.015
433.88	1.035
434.09	1.049
434.29	1.050
434.49	1.061
434.69	1.052
434.90	1.064
435.10	1.059
435.30	1.069
435.51	1.083
435.71	1.091
435.91	1.099
436.11	1.086
436.32	1.060
436.52	1.064
436.72	1.074
436.92	1.077
437.13	1.070
437.33	1.082
437.53	1.077
437.73	1.058
437.93	1.060
438.14	1.055
438.34	1.052
438.54	1.059
438.74	1.052
438.95	1.045
439.15	1.048
439.35	1.056
439.55	1.052
439.76	1.058
439.96	1.064
440.16	1.062
440.36	1.068
440.56	1.066
440.77	1.059
440.97	1.057
441.17	1.051
441.37	1.051
441.58	1.042
441.78	1.062
441.98	1.058
442.18	1.066
442.38	1.064
442.59	1.065
442.79	1.067
442.99	1.084
443.19	1.090
443.40	1.098
443.60	1.101
443.80	1.104
444.00	1.073
444.20	1.065
444.41	1.041
444.61	1.048
444.81	1.054
445.01	1.075
445.21	1.068
445.42	1.066
445.62	1.063
445.82	1.051
446.02	1.053
446.22	1.055
446.43	1.062
446.63	1.064
446.83	1.054
447.03	1.048
447.23	1.032
447.44	1.034
447.64	1.030
447.84	1.032
448.04	1.033
448.24	1.033
448.44	1.039
448.65	1.025
448.85	1.032
449.05	1.049
449.25	1.043
449.45	1.066
449.65	1.077
449.86	1.097
450.06	1.105
450.26	1.119
450.46	1.123
450.66	1.118
450.87	1.135
451.07	1.143
451.27	1.132
451.47	1.134
451.67	1.122
451.87	1.121
452.08	1.104
452.28	1.093
452.48	1.093
452.68	1.090
452.88	1.089
453.08	1.090
453.28	1.085
453.49	1.095
453.69	1.103
453.89	1.100
454.09	1.097
454.29	1.105
454.49	1.111
454.70	1.105
454.90	1.095
455.10	1.101
455.30	1.086
455.50	1.096
455.70	1.095
455.90	1.090
456.11	1.092
456.31	1.094
456.51	1.083
456.71	1.079
456.91	1.093
457.11	1.106
457.31	1.107
457.51	1.122
457.72	1.114
457.92	1.110
458.12	1.111
458.32	1.106
458.52	1.112
458.72	1.115
458.92	1.107
459.12	1.101
459.33	1.091
459.53	1.099
459.73	1.112
459.93	1.109
460.13	1.114
460.33	1.120
460.53	1.122
460.73	1.104
460.93	1.114
461.14	1.127
461.34	1.132
461.54	1.145
461.74	1.145
461.94	1.136
462.14	1.144
462.34	1.139
462.54	1.146
462.74	1.138
462.95	1.149
463.15	1.145
463.35	1.140
463.55	1.136
463.75	1.134
463.95	1.129
464.15	1.130
464.35	1.134
464.55	1.136
464.75	1.129
464.95	1.145
465.16	1.144
465.36	1.131
465.56	1.129
465.76	1.134
465.96	1.136
466.16	1.149
466.36	1.140
466.56	1.124
466.76	1.112
466.96	1.113
467.16	1.110
467.36	1.114
467.57	1.117
467.77	1.122
467.97	1.125
468.17	1.122
468.37	1.104
468.57	1.119
468.77	1.131
468.97	1.144
469.17	1.140
469.37	1.139
469.57	1.149
469.77	1.160
469.97	1.160
470.17	1.159
470.37	1.159
470.57	1.173
470.78	1.154
470.98	1.168
471.18	1.165
471.38	1.166
471.58	1.175
471.78	1.172
471.98	1.169
472.18	1.171
472.38	1.166
472.58	1.181
472.78	1.183
472.98	1.189
473.18	1.180
473.38	1.181
473.58	1.194
473.78	1.191
473.98	1.196
474.18	1.211
474.38	1.213
474.58	1.218
474.78	1.218
474.98	1.217
475.18	1.236
475.38	1.227
475.58	1.223
475.79	1.221
475.99	1.212
476.19	1.211
476.39	1.195
476.59	1.187
476.79	1.184
476.99	1.174
477.19	1.179
477.39	1.158
477.59	1.168
477.79	1.184
477.99	1.178
478.19	1.180
478.39	1.186
478.59	1.186
478.79	1.198
478.99	1.205
479.19	1.216
479.39	1.210
479.59	1.221
479.79	1.219
479.99	1.219
480.19	1.217
480.39	1.214
480.59	1.209
480.79	1.209
480.99	1.205
481.19	1.206
481.39	1.197
481.59	1.204
481.79	1.211
481.99	1.218
482.19	1.220
482.39	1.232
482.59	1.246
482.79	1.247
482.99	1.244
483.19	1.260
483.39	1.276
483.59	1.296
483.79	1.296
483.99	1.289
484.19	1.284
484.39	1.284
484.58	1.285
484.78	1.285
484.98	1.289
485.18	1.294
485.38	1.293
485.58	1.283
485.78	1.265
485.98	1.267
486.18	1.272
486.38	1.280
486.58	1.287
486.78	1.283
486.98	1.283
487.18	1.287
487.38	1.292
487.58	1.288
487.78	1.293
487.98	1.294
488.18	1.288
488.38	1.287
488.58	1.282
488.78	1.279
488.98	1.282
489.18	1.284
489.37	1.276
489.57	1.278
489.77	1.283
489.97	1.284
490.17	1.294
490.37	1.293
490.57	1.300
490.77	1.311
490.97	1.313
491.17	1.316
491.37	1.315
491.57	1.328
491.77	1.330
491.97	1.330
492.17	1.330
492.37	1.327
492.56	1.336
492.76	1.336
492.96	1.340
493.16	1.351
493.36	1.353
493.56	1.360
493.76	1.356
493.96	1.354
494.16	1.359
494.36	1.360
494.56	1.362
494.76	1.366
494.95	1.377
495.15	1.377
495.35	1.364
495.55	1.364
495.75	1.369
495.95	1.373
496.15	1.387
496.35	1.388
496.55	1.392
496.75	1.401
496.95	1.400
497.14	1.401
497.34	1.406
497.54	1.409
497.74	1.420
497.94	1.421
498.14	1.421
498.34	1.415
498.54	1.412
498.74	1.407
498.93	1.406
499.13	1.412
499.33	1.423
499.53	1.426
499.73	1.444
499.93	1.442
500.13	1.440
500.33	1.439
500.53	1.452
500.72	1.460
500.92	1.464
501.12	1.465
501.32	1.459
501.52	1.451
501.72	1.445
501.92	1.435
502.12	1.427
502.31	1.437
502.51	1.444
502.71	1.438
502.91	1.437
503.11	1.446
503.31	1.454
503.51	1.458
503.70	1.457
503.90	1.470
504.10	1.483
504.30	1.487
504.50	1.484
504.70	1.485
504.90	1.490
505.09	1.501
505.29	1.500
505.49	1.497
505.69	1.506
505.89	1.515
506.09	1.504
506.29	1.501
506.48	1.512
506.68	1.525
506.88	1.530
507.08	1.532
507.28	1.538
507.48	1.543
507.67	1.544
507.87	1.547
508.07	1.552
508.27	1.563
508.47	1.563
508.67	1.571
508.86	1.562
509.06	1.562
509.26	1.567
509.46	1.567
509.66	1.571
509.85	1.578
510.05	1.585
510.25	1.585
510.45	1.594
510.65	1.597
510.85	1.593
511.04	1.604
511.24	1.615
511.44	1.617
511.64	1.616
511.84	1.618
512.03	1.620
512.23	1.623
512.43	1.618
512.63	1.611
512.83	1.619
513.02	1.629
513.22	1.630
513.42	1.631
513.62	1.635
513.82	1.640
514.01	1.654
514.21	1.663
514.41	1.668
514.61	1.673
514.81	1.686
515.00	1.679
515.20	1.676
515.40	1.681
515.60	1.680
515.80	1.684
515.99	1.681
516.19	1.664
516.39	1.663
516.59	1.664
516.78	1.674
516.98	1.677
517.18	1.678
517.38	1.682
517.58	1.683
517.77	1.689
517.97	1.688
518.17	1.697
518.37	1.711
518.56	1.719
518.76	1.722
518.96	1.723
519.16	1.725
519.36	1.735
519.55	1.745
519.75	1.753
519.95	1.762
520.15	1.773
520.34	1.775
520.54	1.777
520.74	1.782
520.94	1.782
521.13	1.791
521.33	1.793
521.53	1.805
521.73	1.808
521.92	1.806
522.12	1.813
522.32	1.808
522.52	1.828
522.71	1.841
522.91	1.840
523.11	1.846
523.31	1.848
523.50	1.842
523.70	1.841
523.90	1.838
524.09	1.844
524.29	1.846
524.49	1.861
524.69	1.864
524.88	1.859
525.08	1.861
525.28	1.862
525.48	1.865
525.67	1.876
525.87	1.876
526.07	1.878
526.26	1.881
526.46	1.885
526.66	1.888
526.86	1.881
527.05	1.886
527.25	1.896
527.45	1.907
527.64	1.908
527.84	1.914
528.04	1.922
528.24	1.931
528.43	1.937
528.63	1.941
528.83	1.942
529.02	1.948
529.22	1.951
529.42	1.951
529.62	1.949
529.81	1.951
530.01	1.950
530.21	1.946
530.40	1.945
530.60	1.942
530.80	1.943
530.99	1.947
531.19	1.944
531.39	1.946
531.58	1.948
531.78	1.954
531.98	1.969
532.18	1.976
532.37	1.994
532.57	2.006
532.77	2.018
532.96	2.011
533.16	2.014
533.36	2.022
533.55	2.036
533.75	2.038
533.95	2.044
534.14	2.044
534.34	2.056
534.54	2.055
534.73	2.054
534.93	2.054
535.13	2.064
535.32	2.064
535.52	2.067
535.72	2.064
535.91	2.076
536.11	2.077
536.31	2.082
536.50	2.094
536.70	2.098
536.90	2.107
537.09	2.121
537.29	2.128
537.48	2.138
537.68	2.144
537.88	2.145
538.07	2.148
538.27	2.158
538.47	2.167
538.66	2.159
538.86	2.162
539.06	2.166
539.25	2.173
539.45	2.177
539.65	2.183
539.84	2.185
540.04	2.192
540.23	2.198
540.43	2.204
540.63	2.208
540.82	2.221
541.02	2.227
541.22	2.232
541.41	2.231
541.61	2.234
541.80	2.242
542.00	2.241
542.20	2.241
542.39	2.239
542.59	2.242
542.79	2.246
542.98	2.244
543.18	2.245
543.37	2.251
543.57	2.254
543.77	2.266
543.96	2.259
544.16	2.260
544.35	2.264
544.55	2.273
544.75	2.282
544.94	2.276
545.14	2.290
545.33	2.312
545.53	2.313
545.73	2.313
545.92	2.305
546.12	2.317
546.31	2.334
546.51	2.349
546.71	2.352
546.90	2.357
547.10	2.374
547.29	2.379
547.49	2.377
547.69	2.381
547.88	2.390
548.08	2.399
548.27	2.402
548.47	2.409
548.66	2.406
548.86	2.411
549.06	2.410
549.25	2.415
549.45	2.421
549.64	2.418
549.84	2.429
550.03	2.437
550.23	2.441
550.43	2.458
550.62	2.451
550.82	2.473
551.01	2.483
551.21	2.481
551.40	2.496
551.60	2.498
551.80	2.500
551.99	2.504
552.19	2.507
552.38	2.505
552.58	2.502
552.77	2.517
552.97	2.518
553.16	2.513
553.36	2.517
553.56	2.518
553.75	2.509
553.95	2.519
554.14	2.516
554.34	2.530
554.53	2.549
554.73	2.558
554.92	2.559
555.12	2.563
555.31	2.582
555.51	2.615
555.70	2.612
555.90	2.626
556.10	2.640
556.29	2.648
556.49	2.642
556.68	2.651
556.88	2.652
557.07	2.665
557.27	2.677
557.46	2.674
557.66	2.666
557.85	2.674
558.05	2.681
558.24	2.684
558.44	2.697
558.63	2.704
558.83	2.692
559.02	2.697
559.22	2.686
559.41	2.683
559.61	2.690
559.80	2.691
560.00	2.689
560.19	2.692
560.39	2.680
560.58	2.687
560.78	2.698
560.97	2.709
561.17	2.728
561.36	2.740
561.56	2.747
561.75	2.747
561.95	2.760
562.14	2.769
562.34	2.776
562.53	2.794
562.73	2.788
562.92	2.789
563.12	2.801
563.31	2.794
563.51	2.796
563.70	2.798
563.90	2.812
564.09	2.812
564.29	2.819
564.48	2.822
564.68	2.832
564.87	2.839
565.07	2.838
565.26	2.843
565.45	2.848
565.65	2.868
565.84	2.879
566.04	2.878
566.23	2.887
566.43	2.895
566.62	2.900
566.82	2.896
567.01	2.892
567.21	2.903
567.40	2.895
567.60	2.918
567.79	2.915
567.98	2.924
568.18	2.928
568.37	2.929
568.57	2.933
568.76	2.939
568.96	2.943
569.15	2.955
569.35	2.963
569.54	2.968
569.73	2.954
569.93	2.959
570.12	2.953
570.32	2.968
570.51	2.976
570.71	2.983
570.90	2.990
571.09	3.004
571.29	3.022
571.48	3.029
571.68	3.034
571.87	3.043
572.07	3.052
572.26	3.058
572.45	3.059
572.65	3.063
572.84	3.057
573.04	3.057
573.23	3.067
573.43	3.073
573.62	3.081
573.81	3.099
574.01	3.106
574.20	3.105
574.40	3.111
574.59	3.110
574.78	3.107
574.98	3.119
575.17	3.128
575.37	3.126
575.56	3.123
575.75	3.121
575.95	3.124
576.14	3.122
576.34	3.114
576.53	3.112
576.72	3.126
576.92	3.151
577.11	3.155
577.31	3.164
577.50	3.168
577.69	3.180
577.89	3.194
578.08	3.189
578.28	3.200
578.47	3.217
578.66	3.231
578.86	3.237
579.05	3.230
579.24	3.242
579.44	3.243
579.63	3.247
579.83	3.244
580.02	3.246
580.21	3.266
580.41	3.268
580.60	3.272
580.79	3.277
580.99	3.283
581.18	3.291
581.38	3.293
581.57	3.303
581.76	3.305
581.96	3.319
582.15	3.325
582.34	3.328
582.54	3.340
582.73	3.362
582.92	3.366
583.12	3.371
583.31	3.384
583.50	3.380
583.70	3.393
583.89	3.398
584.08	3.397
584.28	3.403
584.47	3.398
584.66	3.401
584.86	3.389
585.05	3.406
585.24	3.398
585.44	3.397
585.63	3.416
585.82	3.416
586.02	3.416
586.21	3.431
586.40	3.434
586.60	3.451
586.79	3.457
586.98	3.462
587.18	3.460
587.37	3.474
587.56	3.467
587.76	3.474
587.95	3.471
588.14	3.493
588.34	3.483
588.53	3.491
588.72	3.491
588.92	3.509
589.11	3.534
589.30	3.539
589.50	3.549
589.69	3.573
589.88	3.565
590.07	3.573
590.27	3.582
590.46	3.584
590.65	3.593
590.85	3.604
591.04	3.595
591.23	3.585
591.43	3.589
591.62	3.599
591.81	3.593
592.00	3.597
592.20	3.605
592.39	3.600
592.58	3.627
592.78	3.619
592.97	3.624
593.16	3.633
593.35	3.645
593.55	3.642
593.74	3.630
593.93	3.638
594.13	3.659
594.32	3.678
594.51	3.698
594.70	3.693
594.90	3.702
595.09	3.702
595.28	3.707
595.47	3.711
595.67	3.727
595.86	3.740
596.05	3.745
596.24	3.753
596.44	3.737
596.63	3.738
596.82	3.732
597.02	3.728
597.21	3.738
597.40	3.748
597.59	3.751
597.79	3.748
597.98	3.744
598.17	3.747
598.36	3.742
598.56	3.749
598.75	3.748
598.94	3.764
599.13	3.785
599.32	3.790
599.52	3.778
599.71	3.788
599.90	3.798
600.09	3.819
600.29	3.838
600.48	3.846
600.67	3.855
600.86	3.861
601.06	3.870
601.25	3.878
601.44	3.883
601.63	3.910
601.82	3.929
602.02	3.943
602.21	3.952
602.40	3.952
602.59	3.962
602.79	3.975
602.98	3.979
603.17	3.977
603.36	3.977
603.55	3.976
603.75	3.975
603.94	3.968
604.13	3.966
604.32	3.967
604.51	3.964
604.71	3.968
604.90	3.979
605.09	3.987
605.28	3.990
605.47	3.998
605.67	4.007
605.86	4.010
606.05	4.024
606.24	4.028
606.43	4.029
606.63	4.043
606.82	4.048
607.01	4.044
607.20	4.051
607.39	4.057
607.59	4.039
607.78	4.042
607.97	4.039
608.16	4.020
608.35	4.031
608.54	4.040
608.74	4.036
608.93	4.055
609.12	4.057
609.31	4.057
609.50	4.078
609.69	4.105
609.89	4.112
610.08	4.133
610.27	4.147
610.46	4.156
610.65	4.162
610.84	4.174
611.04	4.168
611.23	4.180
611.42	4.192
611.61	4.180
611.80	4.181
611.99	4.182
612.19	4.188
612.38	4.198
612.57	4.199
612.76	4.191
612.95	4.203
613.14	4.209
613.33	4.198
613.53	4.198
613.72	4.217
613.91	4.223
614.10	4.252
614.29	4.244
614.48	4.261
614.67	4.280
614.86	4.291
615.06	4.282
615.25	4.278
615.44	4.305
615.63	4.301
615.82	4.306
616.01	4.315
616.20	4.294
616.39	4.312
616.59	4.295
616.78	4.295
616.97	4.323
617.16	4.336
617.35	4.350
617.54	4.343
617.73	4.375
617.92	4.375
618.12	4.367
618.31	4.380
618.50	4.381
618.69	4.400
618.88	4.401
619.07	4.388
619.26	4.389
619.45	4.395
619.64	4.410
619.83	4.409
620.03	4.422
620.22	4.449
620.41	4.454
620.60	4.459
620.79	4.467
620.98	4.465
621.17	4.476
621.36	4.491
621.55	4.508
621.74	4.520
621.93	4.518
622.12	4.527
622.32	4.529
622.51	4.531
622.70	4.535
622.89	4.527
623.08	4.537
623.27	4.555
623.46	4.554
623.65	4.550
623.84	4.556
624.03	4.569
624.22	4.568
624.41	4.565
624.60	4.576
624.79	4.591
624.99	4.604
625.18	4.611
625.37	4.613
625.56	4.618
625.75	4.626
625.94	4.628
626.13	4.633
626.32	4.634
626.51	4.652
626.70	4.659
626.89	4.655
627.08	4.668
627.27	4.674
627.46	4.663
627.65	4.678
627.84	4.685
628.03	4.686
628.22	4.692
628.41	4.714
628.60	4.714
628.79	4.728
628.98	4.724
629.17	4.716
629.37	4.734
629.56	4.754
629.75	4.756
629.94	4.767
630.13	4.773
630.32	4.780
630.51	4.779
630.70	4.778
630.89	4.771
631.08	4.809
631.27	4.820
631.46	4.833
631.65	4.838
631.84	4.846
632.03	4.835
632.22	4.842
632.41	4.835
632.60	4.845
632.79	4.851
632.98	4.856
633.17	4.849
633.36	4.863
633.55	4.845
633.74	4.841
633.93	4.868
634.12	4.890
634.31	4.906
634.50	4.926
634.69	4.927
634.88	4.936
635.07	4.942
635.26	4.939
635.45	4.943
635.64	4.958
635.83	4.979
636.02	4.960
636.21	4.969
636.40	4.957
636.59	4.951
636.78	4.948
636.96	4.969
637.15	4.969
637.34	4.975
637.53	4.984
637.72	4.998
637.91	4.986
638.10	4.998
638.29	5.002
638.48	5.020
638.67	5.012
638.86	5.001
639.05	4.996
639.24	5.010
639.43	5.049
639.62	5.044
639.81	5.041
640.00	5.051
640.19	5.066
640.38	5.065
640.57	5.065
640.76	5.087
640.95	5.124
641.14	5.133
641.32	5.148
641.51	5.124
641.70	5.144
641.89	5.161
642.08	5.183
642.27	5.183
642.46	5.196
642.65	5.182
642.84	5.195
643.03	5.185
643.22	5.193
643.41	5.207
643.60	5.222
643.79	5.225
643.98	5.217
644.16	5.218
644.35	5.229
644.54	5.234
644.73	5.268
644.92	5.278
645.11	5.289
645.30	5.289
645.49	5.287
645.68	5.268
645.87	5.275
646.06	5.295
646.24	5.304
646.43	5.291
646.62	5.290
646.81	5.284
647.00	5.277
647.19	5.288
647.38	5.290
647.57	5.289
647.76	5.320
647.95	5.327
648.13	5.322
648.32	5.338
648.51	5.354
648.70	5.346
648.89	5.362
649.08	5.371
649.27	5.379
649.46	5.385
649.65	5.379
649.83	5.375
650.02	5.358
650.21	5.391
650.40	5.379
650.59	5.379
650.78	5.397
650.97	5.403
651.16	5.407
651.34	5.407
651.53	5.400
651.72	5.427
651.91	5.426
652.10	5.445
652.29	5.435
652.48	5.446
652.66	5.465
652.85	5.483
653.04	5.490
653.23	5.495
653.42	5.512
653.61	5.519
653.80	5.532
653.98	5.536
654.17	5.546
654.36	5.557
654.55	5.548
654.74	5.557
654.93	5.556
655.11	5.566
655.30	5.571
655.49	5.577
655.68	5.617
655.87	5.617
656.06	5.632
656.24	5.657
656.43	5.653
656.62	5.672
656.81	5.659
657.00	5.681
657.19	5.704
657.37	5.710
657.56	5.718
657.75	5.653
657.94	5.662
658.13	5.672
658.31	5.656
658.50	5.660
658.69	5.677
658.88	5.671
659.07	5.661
659.26	5.669
659.44	5.675
659.63	5.676
659.82	5.742
660.01	5.749
660.20	5.749
660.38	5.776
660.57	5.780
660.76	5.786
660.95	5.819
661.14	5.825
661.32	5.820
661.51	5.847
661.70	5.868
661.89	5.886
662.08	5.910
662.26	5.921
662.45	5.900
662.64	5.923
662.83	5.926
663.01	5.918
663.20	5.912
663.39	5.908
663.58	5.888
663.77	5.870
663.95	5.850
664.14	5.823
664.33	5.829
664.52	5.845
664.70	5.819
664.89	5.842
665.08	5.869
665.27	5.904
665.45	5.907
665.64	5.920
665.83	5.932
666.02	5.942
666.20	5.948
666.39	5.948
666.58	5.969
666.77	5.984
666.95	5.948
667.14	5.948
667.33	5.943
667.52	5.961
667.70	5.966
667.89	5.982
668.08	6.013
668.27	6.008
668.45	6.017
668.64	6.002
668.83	6.002
669.02	6.002
669.20	6.003
669.39	6.008
669.58	6.019
669.77	6.031
669.95	6.016
670.14	6.004
670.33	6.030
670.51	6.042
670.70	6.074
670.89	6.105
671.08	6.137
671.26	6.159
671.45	6.177
671.64	6.166
671.82	6.184
672.01	6.211
672.20	6.199
672.39	6.198
672.57	6.210
672.76	6.209
672.95	6.189
673.13	6.203
673.32	6.209
673.51	6.192
673.70	6.204
673.88	6.206
674.07	6.215
674.26	6.241
674.44	6.268
674.63	6.273
674.82	6.290
675.00	6.296
675.19	6.310
675.38	6.310
675.56	6.334
675.75	6.367
675.94	6.353
676.12	6.348
676.31	6.350
676.50	6.354
676.69	6.372
676.87	6.372
677.06	6.391
677.25	6.379
677.43	6.387
677.62	6.407
677.81	6.407
677.99	6.436
678.18	6.448
678.37	6.437
678.55	6.432
678.74	6.427
678.93	6.428
679.11	6.427
679.30	6.416
679.48	6.426
679.67	6.410
679.86	6.415
680.04	6.424
680.23	6.418
680.42	6.430
680.60	6.431
680.79	6.445
680.98	6.465
681.16	6.480
681.35	6.517
681.54	6.483
681.72	6.491
681.91	6.493
682.10	6.491
682.28	6.506
682.47	6.522
682.65	6.539
682.84	6.543
683.03	6.527
683.21	6.538
683.40	6.524
683.59	6.547
683.77	6.534
683.96	6.532
684.14	6.546
684.33	6.556
684.52	6.569
684.70	6.567
684.89	6.563
685.07	6.565
685.26	6.565
685.45	6.576
685.63	6.574
685.82	6.617
686.00	6.626
686.19	6.649
686.38	6.653
686.56	6.674
686.75	6.699
686.93	6.703
687.12	6.702
687.31	6.717
687.49	6.729
687.68	6.743
687.86	6.734
688.05	6.748
688.24	6.733
688.42	6.736
688.61	6.716
688.79	6.713
688.98	6.744
689.17	6.765
689.35	6.763
689.54	6.743
689.72	6.751
689.91	6.759
690.09	6.772
690.28	6.776
690.47	6.774
690.65	6.770
690.84	6.785
691.02	6.768
691.21	6.734
691.39	6.736
691.58	6.778
691.76	6.783
691.95	6.784
692.14	6.797
692.32	6.801
692.51	6.848
692.69	6.879
692.88	6.871
693.06	6.869
693.25	6.922
693.43	6.935
693.62	6.941
693.81	6.952
693.99	6.978
694.18	6.954
694.36	6.958
694.55	6.936
694.73	6.962
694.92	6.956
695.10	6.959
695.29	6.976
695.47	6.974
695.66	6.967
695.84	6.990
696.03	6.969
696.21	7.009
696.40	7.010
696.59	7.020
696.77	6.976
696.96	7.003
697.14	7.034
697.33	7.043
697.51	7.058
697.70	7.074
697.88	7.074
698.07	7.120
698.25	7.089
698.44	7.099
698.62	7.113
698.81	7.115
698.99	7.141
699.18	7.143
699.36	7.141
699.55	7.154
699.73	7.161
699.92	7.167
700.10	7.145
700.29	7.162
700.47	7.157
700.66	7.153
700.84	7.185
701.03	7.155
701.21	7.161
701.40	7.133
701.58	7.144
701.77	7.139
701.95	7.148
702.13	7.151
702.32	7.182
702.50	7.231
702.69	7.242
702.87	7.218
703.06	7.241
703.24	7.211
703.43	7.261
703.61	7.268
703.80	7.276
703.98	7.266
704.17	7.293
704.35	7.288
704.54	7.283
704.72	7.293
704.90	7.321
705.09	7.322
705.27	7.376
705.46	7.387
705.64	7.351
705.83	7.347
706.01	7.333
706.20	7.357
706.38	7.353
706.56	7.310
706.75	7.306
706.93	7.347
707.12	7.346
707.30	7.360
707.49	7.371
707.67	7.420
707.86	7.426
708.04	7.471
708.22	7.437
708.41	7.428
708.59	7.465
708.78	7.456
708.96	7.431
709.14	7.480
709.33	7.493
709.51	7.488
709.70	7.490
709.88	7.539
710.07	7.552
710.25	7.606
710.43	7.630
710.62	7.659
710.80	7.678
710.99	7.703
711.17	7.702
711.35	7.710
711.54	7.724
711.72	7.728
711.91	7.734
712.09	7.739
712.27	7.711
712.46	7.742
712.64	7.763
712.83	7.772
713.01	7.785
713.19	7.758
713.38	7.758
713.56	7.747
713.75	7.731
713.93	7.747
714.11	7.732
714.30	7.771
714.48	7.759
714.66	7.743
714.85	7.759
715.03	7.760
715.22	7.777
715.40	7.766
715.58	7.808
715.77	7.867
715.95	7.868
716.13	7.905
716.32	7.888
716.50	7.873
716.68	7.890
716.87	7.914
717.05	7.908
717.24	7.934
717.42	7.948
717.60	7.932
717.79	7.912
717.97	7.890
718.15	7.890
718.34	7.900
718.52	7.946
718.70	7.936
718.89	7.913
719.07	7.894
719.25	7.895
719.44	7.893
719.62	7.900
719.80	7.887
719.99	7.879
720.17	7.878
720.35	7.886
720.54	7.838
720.72	7.850
720.90	7.835
721.09	7.867
721.27	7.845
721.45	7.844
721.64	7.858
721.82	7.864
722.00	7.905
722.19	7.903
722.37	7.873
722.55	7.913
722.74	7.903
722.92	7.959
723.10	7.975
723.28	8.029
723.47	8.100
723.65	8.116
723.83	8.155
724.02	8.141
724.20	8.170
724.38	8.213
724.57	8.208
724.75	8.269
724.93	8.224
725.11	8.187
725.30	8.188
725.48	8.154
725.66	8.116
725.85	8.146
726.03	8.140
726.21	8.166
726.39	8.175
726.58	8.205
726.76	8.171
726.94	8.235
727.13	8.303
727.31	8.302
727.49	8.319
727.67	8.363
727.86	8.333
728.04	8.345
728.22	8.293
728.40	8.341
728.59	8.318
728.77	8.331
728.95	8.322
729.13	8.310
729.32	8.309
729.50	8.313
729.68	8.317
729.86	8.319
730.05	8.360
730.23	8.410
730.41	8.368
730.59	8.398
730.78	8.435
730.96	8.444
731.14	8.497
731.32	8.510
731.51	8.515
731.69	8.512
731.87	8.549
732.05	8.547
732.24	8.547
732.42	8.553
732.60	8.561
732.78	8.555
732.97	8.563
733.15	8.552
733.33	8.576
733.51	8.563
733.69	8.572
733.88	8.553
734.06	8.558
734.24	8.528
734.42	8.535
734.60	8.528
734.79	8.518
734.97	8.520
735.15	8.499
735.33	8.493
735.52	8.501
735.70	8.501
735.88	8.501
736.06	8.495
736.24	8.555
736.43	8.578
736.61	8.639
736.79	8.642
736.97	8.648
737.15	8.671
737.34	8.658
737.52	8.666
737.70	8.701
737.88	8.739
738.06	8.772
738.24	8.793
738.43	8.819
738.61	8.824
738.79	8.834
738.97	8.843
739.15	8.823
739.33	8.810
739.52	8.838
739.70	8.818
739.88	8.835
740.06	8.812
740.24	8.786
740.42	8.792
740.61	8.755
740.79	8.772
740.97	8.785
741.15	8.843
741.33	8.917
741.51	8.923
741.70	8.951
741.88	8.923
742.06	8.940
742.24	8.969
742.42	8.944
742.60	8.961
742.78	8.955
742.97	8.948
743.15	8.922
743.33	8.931
743.51	8.920
743.69	8.986
743.87	8.996
744.05	9.032
744.24	8.997
744.42	9.025
744.60	9.047
744.78	9.082
744.96	9.119
745.14	9.153
745.32	9.164
745.50	9.192
745.69	9.128
745.87	9.139
746.05	9.119
746.23	9.121
746.41	9.154
746.59	9.099
746.77	9.064
746.95	9.040
747.13	9.015
747.32	8.965
747.50	9.008
747.68	9.009
747.86	9.046
748.04	9.077
748.22	9.130
748.40	9.116
748.58	9.151
748.76	9.193
748.94	9.256
749.13	9.303
749.31	9.301
749.49	9.201
749.67	9.243
749.85	9.270
750.03	9.262
750.21	9.241
750.39	9.276
750.57	9.263
750.75	9.271
750.93	9.231
751.11	9.212
751.30	9.240
751.48	9.309
751.66	9.279
751.84	9.276
752.02	9.284
752.20	9.353
752.38	9.353
752.56	9.394
752.74	9.367
752.92	9.385
753.10	9.380
753.28	9.426
753.46	9.435
753.64	9.444
753.82	9.420
754.00	9.395
754.18	9.333
754.37	9.297
754.55	9.337
754.73	9.385
754.91	9.420
755.09	9.402
755.27	9.378
755.45	9.423
755.63	9.501
755.81	9.521
755.99	9.561
756.17	9.587
756.35	9.625
756.53	9.637
756.71	9.620
756.89	9.584
757.07	9.603
757.25	9.596
757.43	9.598
757.61	9.532
757.79	9.517
757.97	9.507
758.15	9.576
758.33	9.583
758.51	9.597
758.69	9.590
758.87	9.625
759.05	9.634
759.23	9.664
759.41	9.690
759.59	9.722
759.77	9.762
759.95	9.806
760.13	9.764
760.31	9.767
760.49	9.750
760.67	9.797
760.85	9.819
761.03	9.847
761.21	9.844
761.39	9.850
761.57	9.890
761.75	9.929
761.93	9.913
762.11	9.930
762.29	9.938
762.47	9.983
762.65	9.942
762.83	9.913
763.01	9.927
763.19	9.936
763.37	9.936
763.55	9.940
763.73	9.932
763.91	9.973
764.09	9.956
764.27	9.983
764.45	9.973
764.63	10.022
764.81	10.037
764.99	10.044
765.16	10.030
765.34	10.024
765.52	10.031
765.70	10.027
765.88	10.015
766.06	10.026
766.24	10.036
766.42	10.012
766.60	10.004
766.78	10.015
766.96	10.053
767.14	10.080
767.32	10.081
767.50	10.018
767.68	10.011
767.86	10.012
768.03	10.038
768.21	10.018
768.39	10.026
768.57	10.016
768.75	10.032
768.93	10.008
769.11	10.037
769.29	10.066
769.47	10.091
769.65	10.090
769.83	10.110
770.01	10.167
770.19	10.141
770.36	10.199
770.54	10.196
770.72	10.149
770.90	10.078
771.08	10.094
771.26	10.086
771.44	10.102
771.62	10.128
771.80	10.095
771.98	10.015
772.15	10.056
772.33	10.051
772.51	10.043
772.69	10.072
772.87	10.212
773.05	10.192
773.23	10.216
773.41	10.270
773.58	10.282
773.76	10.358
773.94	10.379
774.12	10.363
774.30	10.384
774.48	10.407
774.66	10.400
774.84	10.265
775.01	10.336
775.19	10.344
775.37	10.384
775.55	10.401
775.73	10.405
775.91	10.436
776.09	10.487
776.26	10.497
776.44	10.534
776.62	10.590
776.80	10.626
776.98	10.586
777.16	10.563
777.34	10.510
777.51	10.480
777.69	10.448
777.87	10.470
778.05	10.494
778.23	10.489
778.41	10.506
778.58	10.466
778.76	10.504
778.94	10.547
779.12	10.646
779.30	10.644
779.48	10.679
779.65	10.696
779.83	10.675
780.01	10.713
780.19	10.737
780.37	10.734
780.55	10.802
780.72	10.816
780.90	10.775
781.08	10.795
781.26	10.941
781.44	10.933
781.61	10.975
781.79	10.975
781.97	10.896
782.15	10.871
782.33	10.867
782.50	10.823
782.68	10.861
782.86	10.811
783.04	10.671
783.22	10.613
783.39	10.592
783.57	10.557
783.75	10.513
783.93	10.572
784.11	10.571
784.28	10.424
784.46	10.437
784.64	10.396
784.82	10.452
784.99	10.533
785.17	10.521
785.35	10.625
785.53	10.652
785.71	10.774
785.88	10.700
786.06	10.767
786.24	10.946
786.42	11.000
786.59	10.938
786.77	10.982
786.95	11.033
787.13	11.003
787.30	10.981
787.48	10.981
787.66	10.947
787.84	10.984
788.01	11.021
788.19	11.037
788.37	11.090
788.55	11.178
788.72	11.270
788.90	11.223
789.08	11.316
789.26	11.292
789.43	11.305
789.61	11.297
789.79	11.317
789.97	11.295
790.14	11.348
790.32	11.340
790.50	11.345
790.68	11.275
790.85	11.302
791.03	11.266
791.21	11.307
791.38	11.294
791.56	11.271
791.74	11.336
791.92	11.250
792.09	11.208
792.27	11.190
792.45	11.156
792.62	11.094
792.80	11.073
792.98	10.944
793.16	10.896
793.33	10.864
793.51	10.854
793.69	10.831
793.86	10.860
794.04	10.845
794.22	10.790
794.39	10.836
794.57	10.894
794.75	10.987
794.93	11.096
795.10	11.160
795.28	11.294
795.46	11.427
795.63	11.457
795.81	11.609
795.99	11.531
796.16	11.640
796.34	11.755
796.52	11.752
796.69	11.670
796.87	11.690
797.05	11.658
797.22	11.514
797.40	11.549
797.58	11.510
797.75	11.520
797.93	11.560
798.11	11.674
798.28	11.563
798.46	11.608
798.64	11.606
798.81	11.707
798.99	11.696
799.17	11.797
799.34	11.635
799.52	11.693
799.70	11.662
799.87	11.739
800.05	11.509
800.22	11.541
800.40	11.435
800.58	11.468
800.75	11.434
800.93	11.550
801.11	11.582
801.28	11.801
801.46	11.676
801.63	11.661
801.81	11.656
801.99	11.776
802.16	11.777
802.34	11.886
802.52	11.853
802.69	11.764
802.87	11.689
803.04	11.662
803.22	11.624
803.40	11.671
803.57	11.714
803.75	11.658
803.93	11.594
804.10	11.547
804.28	11.577
804.45	11.648
804.63	11.799
804.81	11.832
804.98	11.874
805.16	11.948
805.33	12.136
805.51	12.148
805.68	12.287
805.86	12.426
806.04	12.449
806.21	12.486
806.39	12.543
806.56	12.458
806.74	12.425
806.92	12.415
807.09	12.323
807.27	12.236
807.44	12.240
807.62	12.138
807.79	12.156
807.97	12.210
808.15	12.148
808.32	12.149
808.50	12.148
808.67	12.212
808.85	12.277
809.02	12.289
809.20	12.281
809.38	12.197
809.55	12.219
809.73	12.141
809.90	12.166
810.08	12.261
810.25	12.148
810.43	12.136
810.60	12.124
810.78	12.105
810.95	12.071
811.13	12.060
811.31	12.077
811.48	12.230
811.66	12.175
811.83	12.133
812.01	12.083
812.18	12.159
812.36	12.153
812.53	12.076
812.71	11.974
812.88	11.998
813.06	12.022
813.23	12.124
813.41	12.128
813.58	12.133
813.76	12.173
813.93	12.125
814.11	11.946
814.28	11.957
814.46	12.115
814.63	12.326
814.81	12.360
814.98	12.372
815.16	12.394
815.33	12.274
815.51	12.402
815.68	12.412
815.86	12.503
816.03	12.619
816.21	12.740
816.38	12.602
816.56	12.409
816.73	12.409
816.91	12.493
817.08	12.561
817.26	12.593
817.43	12.585
817.61	12.581
817.78	12.593
817.96	12.681
818.13	12.598
818.31	12.698
818.48	12.881
818.66	13.009
818.83	12.878
819.01	12.725
819.18	12.794
819.36	12.822
819.53	12.817
819.70	12.745
819.88	12.893
820.05	13.009
820.23	13.105
820.40	13.028
820.58	12.860
820.75	12.971
820.93	12.929
821.10	12.954
821.28	13.025
821.45	13.086
821.62	13.200
821.80	13.170
821.97	13.161
822.15	13.176
822.32	13.210
822.50	13.365
822.67	13.516
822.84	13.610
823.02	13.609
823.19	13.515
823.37	13.425
823.54	13.327
823.72	13.252
823.89	13.179
824.06	13.144
824.24	13.119
824.41	13.077
824.59	13.022
824.76	12.980
824.94	12.927
825.11	12.895
825.28	12.877
825.46	12.870
825.63	12.896
825.81	12.929
825.98	12.935
826.15	12.955
826.33	12.989
826.50	13.011
826.68	13.025
826.85	13.044
827.02	13.094
827.20	13.170
827.37	13.256
827.54	13.315
827.72	13.426
827.89	13.521
828.07	13.551
828.24	13.547
828.41	13.529
828.59	13.498
828.76	13.473
828.94	13.453
829.11	13.388
829.28	13.366
829.46	13.315
829.63	13.265
829.80	13.225
829.98	13.182
830.15	13.164
830.32	13.148
830.50	13.160
830.67	13.241
830.85	13.277
831.02	13.364
831.19	13.400
831.37	13.431
831.54	13.443
831.71	13.447
831.89	13.455
832.06	13.466
832.23	13.513
832.41	13.631
832.58	13.528
832.75	13.531
832.93	13.549
833.10	13.544
833.27	13.594
833.45	13.718
833.62	13.765
833.79	13.844
833.97	13.926
834.14	13.950
834.31	13.982
834.49	14.068
834.66	14.036
834.83	14.096
835.01	14.049
835.18	14.014
835.35	13.990
835.52	13.904
835.70	13.879
835.87	13.837
836.04	13.827
836.22	13.763
836.39	13.740
836.56	13.709
836.74	13.665
836.91	13.668
837.08	13.626
837.25	13.576
837.43	13.630
837.60	13.594
837.77	13.578
837.95	13.561
838.12	13.634
838.29	13.528
838.46	13.493
838.64	13.429
838.81	13.287
838.98	13.394
839.16	13.481
839.33	13.339
839.50	13.307
839.67	13.502
839.85	13.451
840.02	13.446
840.19	13.471
840.36	13.688
840.54	13.756
840.71	14.053
840.88	14.059
841.06	14.069
841.23	14.218
841.40	14.288
841.57	14.159
841.75	14.112
841.92	13.982
842.09	14.074
842.26	14.012
842.44	13.975
842.61	13.925
842.78	13.926
842.95	13.895
843.12	13.867
843.30	13.846
843.47	13.933
843.64	14.011
843.81	14.160
843.99	14.093
844.16	14.217
844.33	14.312
844.50	14.376
844.68	14.420
844.85	14.396
845.02	14.431
845.19	14.489
845.36	14.289
845.54	14.374
845.71	14.338
845.88	14.207
846.05	13.956
846.22	13.841
846.40	13.765
846.57	13.587
846.74	13.672
846.91	13.567
847.08	13.533
847.26	13.793
847.43	13.651
847.60	13.542
847.77	13.726
847.94	13.813
848.12	13.961
848.29	13.948
848.46	13.966
848.63	13.935
848.80	13.996
848.98	14.158
849.15	14.033
849.32	14.137
849.49	14.159
849.66	14.298
849.83	14.058
850.01	14.017
850.18	14.081
850.35	14.053
850.52	14.211
850.69	14.403
850.86	14.171
851.04	13.947
851.21	14.239
851.38	14.034
851.55	13.981
851.72	13.920
851.89	13.888
852.06	13.767
852.24	14.086
852.41	13.962
852.58	13.884
852.75	13.984
852.92	14.347
853.09	14.256
853.26	14.520
853.44	14.462
853.61	15.015
853.78	14.898
853.95	15.131
854.12	14.916
854.29	15.243
854.46	15.355
854.64	15.656
854.81	15.504
854.98	15.501
855.15	15.477
855.32	15.388
855.49	15.155
855.66	15.095
855.83	15.033
856.00	15.203
856.18	14.851
856.35	14.705
856.52	14.586
856.69	14.578
856.86	14.375
857.03	14.500
857.20	14.806
857.37	15.258
857.54	15.437
857.71	15.162
857.89	15.043
858.06	14.974
858.23	14.871
858.40	14.493
858.57	14.748
858.74	14.637
858.91	14.657
859.08	14.645
859.25	14.138
859.42	14.280
859.59	14.636
859.76	14.695
859.94	15.159
860.11	15.268
860.28	15.584
860.45	15.340
860.62	15.609
860.79	15.337
860.96	15.154
861.13	14.907
861.30	14.670
861.47	14.590
861.64	14.665
861.81	14.032
861.98	13.954
862.15	14.044
862.32	14.089
862.49	14.166
862.66	14.463
862.83	14.288
863.01	14.885
863.18	14.716
863.35	14.619
863.52	15.019
863.69	15.174
863.86	15.528
864.03	15.261
864.20	15.659
864.37	15.426
864.54	15.681
864.71	16.084
864.88	15.655
865.05	16.065
865.22	16.107
865.39	15.719
865.56	16.116
865.73	16.044
865.90	16.169
866.07	15.898
866.24	15.944
866.41	15.635
866.58	15.324
866.75	15.562
866.92	15.301
867.09	15.420
867.26	15.414
867.43	15.148
867.60	14.891
867.77	14.736
867.94	14.587
868.11	14.648
868.28	14.773
868.45	14.795
868.62	14.834
868.79	14.668
868.96	14.775
869.13	14.890
869.30	14.897
869.47	15.079
869.64	15.064
869.81	14.966
869.98	15.111
870.15	15.095
870.32	15.127
870.49	14.762
870.66	15.126
870.83	14.841
871.00	14.966
871.16	14.789
871.33	14.805
871.50	14.848
871.67	14.990
871.84	14.853
872.01	14.964
872.18	15.270
872.35	15.873
872.52	15.649
872.69	15.562
872.86	15.277
873.03	15.626
873.20	15.394
873.37	15.416
873.54	15.563
873.71	15.760
873.88	15.760
874.05	15.642
874.21	15.426
874.38	15.344
874.55	15.326
874.72	15.381
874.89	15.030
875.06	15.189
875.23	15.175
875.40	15.036
875.57	15.118
875.74	14.970
875.91	14.848
876.08	15.056
876.24	15.322
876.41	15.564
876.58	15.649
876.75	15.873
876.92	15.980
877.09	16.354
877.26	16.557
877.43	16.335
877.60	16.378
877.77	16.394
877.93	16.382
878.10	16.407
878.27	16.261
878.44	16.196
878.61	16.376
878.78	16.437
878.95	16.157
879.12	16.199
879.28	16.159
879.45	16.407
879.62	16.456
879.79	16.183
879.96	16.226
880.13	16.387
880.30	16.519
880.47	16.254
880.63	16.315
880.80	16.426
880.97	16.435
881.14	16.564
881.31	16.395
881.48	16.367
881.65	16.611
881.81	16.720
881.98	16.849
882.15	16.979
882.32	17.132
882.49	17.186
882.66	17.168
882.82	17.091
882.99	17.004
883.16	16.938
883.33	16.890
883.50	16.796
883.67	16.751
883.83	16.709
884.00	16.642
884.17	16.569
884.34	16.504
884.51	16.448
884.68	16.405
884.84	16.396
885.01	16.390
885.18	16.397
885.35	16.417
885.52	16.398
885.68	16.390
885.85	16.355
886.02	16.563
886.19	16.123
886.36	16.206
886.53	16.674
886.69	15.636
>>>>>End Spectral Data<<<<<
