OOIBase32 Version 2.0.6.5 Data File
++++++++++++++++++++++++++++++++++++
Date: 03-24-2011, 10:55:10
User: Valued Ocean Optics Customer
Spectrometer Serial Number: USB4C01507
Spectrometer Channel: Master
Integration Time (msec): 46
Spectra Averaged: 30
Boxcar Smoothing: 5
Correct for Electrical Dark: Enabled
Time Normalized: Disabled
Dual-beam Reference: Disabled
Reference Channel: Master
Temperature: Not acquired
Spectrometer Type: S4000
ADC Type: USB4000
Number of Pixels in File: 3648
Graph Title: 
>>>>>Begin Spectral Data<<<<<
179.17	1065.589
179.39	2889.970
179.60	320.577
179.82	51.575
180.03	251.239
180.24	-373.400
180.46	-12.806
180.67	77.026
180.89	152.694
181.10	-127.481
181.31	172.894
181.53	27.491
181.74	112.080
181.96	231.921
182.17	21.175
182.39	2.436
182.60	57.002
182.81	69.609
183.03	33.453
183.24	-592.731
183.46	8.162
183.67	3.969
183.88	-3.631
184.10	-3.768
184.31	-7.125
184.53	2.438
184.74	-10.824
184.96	-7.676
185.17	-15.016
185.38	-14.601
185.60	-13.429
185.81	-8.490
186.03	-6.534
186.24	-0.126
186.45	1.236
186.67	5.346
186.88	6.564
187.10	16.314
187.31	8.970
187.52	20.269
187.74	18.326
187.95	17.192
188.17	7.321
188.38	9.664
188.59	6.675
188.81	11.159
189.02	13.795
189.24	19.535
189.45	20.452
189.66	21.864
189.88	8.747
190.09	6.404
190.30	10.127
190.52	12.230
190.73	8.712
190.95	5.732
191.16	7.760
191.37	4.650
191.59	-2.838
191.80	-2.730
192.02	9.794
192.23	22.245
192.44	16.060
192.66	11.947
192.87	-0.440
193.08	6.269
193.30	5.727
193.51	9.787
193.73	6.950
193.94	8.774
194.15	9.245
194.37	7.883
194.58	9.333
194.79	3.870
195.01	9.779
195.22	15.540
195.44	12.624
195.65	18.857
195.86	9.381
196.08	3.840
196.29	4.153
196.50	4.542
196.72	4.416
196.93	5.556
197.14	10.704
197.36	8.094
197.57	7.862
197.79	10.144
198.00	2.347
198.21	12.142
198.43	22.101
198.64	22.383
198.85	20.569
199.07	19.867
199.28	14.641
199.49	12.673
199.71	14.571
199.92	22.845
200.13	17.228
200.35	23.551
200.56	11.183
200.78	6.385
200.99	1.116
201.20	-0.106
201.42	-6.701
201.63	-10.878
201.84	-7.231
202.06	-5.446
202.27	-12.191
202.48	-9.680
202.70	-15.075
202.91	-11.946
203.12	-13.202
203.34	-8.816
203.55	-5.311
203.76	-5.573
203.98	2.038
204.19	3.428
204.40	3.601
204.62	9.028
204.83	7.635
205.04	8.290
205.26	8.020
205.47	9.427
205.68	10.584
205.90	6.465
206.11	6.671
206.32	4.593
206.54	0.594
206.75	-0.396
206.96	-8.247
207.18	-5.913
207.39	-4.945
207.60	5.345
207.82	3.528
208.03	5.383
208.24	6.998
208.45	12.412
208.67	11.433
208.88	10.478
209.09	8.177
209.31	6.577
209.52	2.805
209.73	7.229
209.95	5.270
210.16	6.435
210.37	3.231
210.59	3.851
210.80	0.837
211.01	1.870
211.23	5.182
211.44	4.655
211.65	5.613
211.86	7.728
212.08	5.634
212.29	3.171
212.50	0.985
212.72	-0.647
212.93	1.004
213.14	3.835
213.36	1.638
213.57	0.342
213.78	3.931
213.99	10.086
214.21	12.839
214.42	13.111
214.63	15.490
214.85	14.196
215.06	14.909
215.27	13.575
215.49	10.575
215.70	12.441
215.91	12.472
216.12	10.933
216.34	7.803
216.55	7.054
216.76	7.122
216.98	2.579
217.19	5.410
217.40	8.294
217.61	9.391
217.83	12.050
218.04	10.221
218.25	9.687
218.47	9.411
218.68	9.318
218.89	6.685
219.10	5.516
219.32	4.975
219.53	4.635
219.74	5.009
219.95	3.411
220.17	2.516
220.38	5.341
220.59	4.008
220.81	4.449
221.02	4.721
221.23	6.192
221.44	5.527
221.66	6.784
221.87	6.210
222.08	5.613
222.29	6.764
222.51	6.982
222.72	5.538
222.93	6.630
223.14	6.663
223.36	6.033
223.57	4.830
223.78	5.362
223.99	4.747
224.21	5.840
224.42	4.619
224.63	2.987
224.84	2.682
225.06	3.076
225.27	2.888
225.48	2.380
225.69	2.854
225.91	3.595
226.12	2.983
226.33	3.789
226.54	3.202
226.76	3.515
226.97	3.992
227.18	3.834
227.39	3.612
227.61	3.723
227.82	3.721
228.03	3.765
228.24	3.707
228.46	3.910
228.67	3.800
228.88	3.767
229.09	3.701
229.31	3.586
229.52	3.604
229.73	3.798
229.94	3.762
230.16	3.824
230.37	3.799
230.58	3.660
230.79	3.545
231.00	3.603
231.22	3.940
231.43	4.248
231.64	4.243
231.85	4.353
232.07	4.347
232.28	4.303
232.49	4.170
232.70	3.737
232.91	3.940
233.13	3.880
233.34	3.936
233.55	4.020
233.76	3.871
233.98	4.086
234.19	4.314
234.40	4.189
234.61	4.485
234.82	4.634
235.04	4.726
235.25	4.677
235.46	4.761
235.67	4.502
235.88	4.625
236.10	4.742
236.31	4.361
236.52	4.137
236.73	4.326
236.94	4.160
237.16	3.640
237.37	3.983
237.58	3.916
237.79	4.016
238.01	3.736
238.22	3.231
238.43	3.378
238.64	3.787
238.85	3.481
239.06	3.177
239.28	2.967
239.49	3.251
239.70	3.000
239.91	3.195
240.12	3.253
240.34	3.325
240.55	3.520
240.76	3.488
240.97	3.538
241.18	3.631
241.40	3.654
241.61	3.659
241.82	3.645
242.03	3.743
242.24	3.708
242.45	3.589
242.67	3.695
242.88	3.652
243.09	3.554
243.30	3.449
243.51	3.469
243.73	3.429
243.94	3.392
244.15	3.431
244.36	3.384
244.57	3.494
244.78	3.456
245.00	3.306
245.21	3.155
245.42	3.177
245.63	3.136
245.84	3.158
246.05	3.139
246.27	3.165
246.48	3.142
246.69	3.144
246.90	3.071
247.11	3.053
247.32	3.101
247.54	3.172
247.75	3.084
247.96	3.060
248.17	3.106
248.38	3.130
248.59	3.146
248.81	3.191
249.02	3.088
249.23	3.138
249.44	3.195
249.65	3.226
249.86	2.959
250.07	3.263
250.29	3.290
250.50	2.962
250.71	2.958
250.92	2.784
251.13	2.744
251.34	2.848
251.55	2.749
251.77	2.807
251.98	2.663
252.19	2.703
252.40	2.584
252.61	2.563
252.82	2.496
253.03	2.441
253.25	2.513
253.46	2.282
253.67	2.281
253.88	2.294
254.09	2.190
254.30	2.414
254.51	2.406
254.73	2.404
254.94	2.421
255.15	2.521
255.36	2.494
255.57	2.302
255.78	2.463
255.99	2.486
256.20	2.675
256.42	2.672
256.63	2.471
256.84	2.512
257.05	2.676
257.26	2.674
257.47	2.695
257.68	2.755
257.89	2.831
258.10	2.913
258.32	2.773
258.53	2.672
258.74	2.543
258.95	2.590
259.16	2.555
259.37	2.521
259.58	2.458
259.79	2.507
260.00	2.522
260.22	2.547
260.43	2.525
260.64	2.494
260.85	2.506
261.06	2.641
261.27	2.584
261.48	2.699
261.69	2.702
261.90	2.861
262.12	2.876
262.33	2.867
262.54	2.846
262.75	2.859
262.96	2.951
263.17	2.911
263.38	2.829
263.59	2.979
263.80	2.984
264.01	3.029
264.22	2.912
264.44	2.816
264.65	2.535
264.86	2.484
265.07	2.314
265.28	2.292
265.49	2.372
265.70	2.293
265.91	2.217
266.12	2.165
266.33	2.134
266.54	2.226
266.75	2.191
266.97	2.332
267.18	2.372
267.39	2.454
267.60	2.478
267.81	2.430
268.02	2.453
268.23	2.535
268.44	2.553
268.65	2.456
268.86	2.428
269.07	2.591
269.28	2.469
269.49	2.494
269.70	2.439
269.92	2.456
270.13	2.437
270.34	2.544
270.55	2.394
270.76	2.391
270.97	2.474
271.18	2.564
271.39	2.462
271.60	2.538
271.81	2.528
272.02	2.613
272.23	2.610
272.44	2.686
272.65	2.655
272.86	2.728
273.07	2.729
273.28	2.820
273.49	2.752
273.71	2.681
273.92	2.672
274.13	2.514
274.34	2.449
274.55	2.483
274.76	2.338
274.97	2.306
275.18	2.219
275.39	2.168
275.60	2.044
275.81	2.099
276.02	2.147
276.23	2.226
276.44	2.318
276.65	2.275
276.86	2.204
277.07	2.299
277.28	2.353
277.49	2.487
277.70	2.517
277.91	2.566
278.12	2.446
278.33	2.356
278.54	2.312
278.75	2.319
278.96	2.222
279.17	2.237
279.39	2.217
279.60	2.161
279.81	2.060
280.02	2.012
280.23	1.994
280.44	2.045
280.65	2.092
280.86	2.059
281.07	2.146
281.28	2.305
281.49	2.255
281.70	2.350
281.91	2.298
282.12	2.376
282.33	2.482
282.54	2.441
282.75	2.455
282.96	2.627
283.17	2.672
283.38	2.595
283.59	2.519
283.80	2.501
284.01	2.255
284.22	2.314
284.43	2.291
284.64	2.209
284.85	2.263
285.06	2.281
285.27	2.156
285.48	2.116
285.69	2.102
285.90	2.189
286.11	2.289
286.32	2.410
286.53	2.345
286.74	2.382
286.95	2.355
287.16	2.339
287.37	2.248
287.58	2.331
287.79	2.286
288.00	2.273
288.21	2.091
288.42	1.965
288.63	1.985
288.84	2.014
289.05	1.968
289.26	2.046
289.47	2.061
289.68	2.040
289.89	2.002
290.10	2.036
290.31	2.012
290.51	2.053
290.72	2.102
290.93	2.117
291.14	2.137
291.35	2.068
291.56	2.004
291.77	1.968
291.98	2.050
292.19	2.078
292.40	2.157
292.61	2.149
292.82	2.176
293.03	2.152
293.24	2.089
293.45	2.154
293.66	2.231
293.87	2.307
294.08	2.200
294.29	2.168
294.50	2.042
294.71	2.003
294.92	2.087
295.13	2.108
295.34	2.068
295.55	2.072
295.76	1.979
295.96	1.986
296.17	1.976
296.38	2.113
296.59	2.111
296.80	2.178
297.01	2.190
297.22	2.157
297.43	2.162
297.64	2.214
297.85	2.208
298.06	2.215
298.27	2.179
298.48	2.202
298.69	2.116
298.90	2.134
299.11	2.085
299.32	2.047
299.53	2.091
299.73	2.073
299.94	2.092
300.15	2.100
300.36	2.186
300.57	2.142
300.78	2.110
300.99	2.102
301.20	2.028
301.41	2.023
301.62	2.037
301.83	2.023
302.04	1.980
302.25	1.911
302.45	1.888
302.66	1.785
302.87	1.827
303.08	1.790
303.29	1.838
303.50	1.932
303.71	2.012
303.92	2.005
304.13	1.976
304.34	1.998
304.55	2.013
304.76	2.078
304.96	2.070
305.17	2.109
305.38	2.100
305.59	2.099
305.80	2.030
306.01	1.976
306.22	1.879
306.43	1.889
306.64	1.846
306.85	1.821
307.06	1.820
307.26	1.862
307.47	1.817
307.68	1.905
307.89	1.889
308.10	1.905
308.31	1.893
308.52	1.979
308.73	1.967
308.94	2.009
309.14	2.034
309.35	2.071
309.56	2.071
309.77	2.105
309.98	2.103
310.19	2.120
310.40	2.153
310.61	2.110
310.82	2.065
311.02	2.043
311.23	2.004
311.44	1.970
311.65	1.890
311.86	1.909
312.07	1.895
312.28	1.834
312.49	1.788
312.69	1.717
312.90	1.715
313.11	1.703
313.32	1.724
313.53	1.766
313.74	1.728
313.95	1.753
314.16	1.635
314.36	1.632
314.57	1.663
314.78	1.652
314.99	1.699
315.20	1.793
315.41	1.871
315.62	1.836
315.82	1.859
316.03	1.897
316.24	1.892
316.45	2.067
316.66	2.053
316.87	2.097
317.08	2.089
317.28	2.152
317.49	2.079
317.70	2.068
317.91	2.082
318.12	2.098
318.33	2.067
318.54	2.059
318.74	1.964
318.95	1.976
319.16	1.947
319.37	1.969
319.58	1.912
319.79	1.883
319.99	1.869
320.20	1.866
320.41	1.812
320.62	1.832
320.83	1.812
321.04	1.777
321.24	1.769
321.45	1.795
321.66	1.782
321.87	1.805
322.08	1.888
322.29	1.873
322.49	1.911
322.70	1.901
322.91	1.969
323.12	2.009
323.33	2.038
323.54	2.004
323.74	1.937
323.95	1.953
324.16	1.929
324.37	1.914
324.58	1.934
324.79	1.920
324.99	1.930
325.20	1.946
325.41	1.939
325.62	1.939
325.83	1.960
326.03	1.918
326.24	1.907
326.45	1.920
326.66	1.884
326.87	1.833
327.07	1.803
327.28	1.789
327.49	1.758
327.70	1.705
327.91	1.716
328.11	1.734
328.32	1.775
328.53	1.841
328.74	1.852
328.95	1.866
329.15	1.920
329.36	1.966
329.57	1.959
329.78	1.983
329.99	2.024
330.19	1.969
330.40	1.927
330.61	1.902
330.82	1.799
331.03	1.711
331.23	1.744
331.44	1.720
331.65	1.669
331.86	1.722
332.07	1.689
332.27	1.639
332.48	1.663
332.69	1.699
332.90	1.772
333.10	1.842
333.31	1.879
333.52	1.823
333.73	1.807
333.94	1.767
334.14	1.757
334.35	1.726
334.56	1.739
334.77	1.736
334.97	1.734
335.18	1.638
335.39	1.639
335.60	1.663
335.80	1.666
336.01	1.681
336.22	1.694
336.43	1.662
336.64	1.683
336.84	1.716
337.05	1.714
337.26	1.669
337.47	1.719
337.67	1.716
337.88	1.652
338.09	1.653
338.30	1.654
338.50	1.724
338.71	1.752
338.92	1.766
339.13	1.790
339.33	1.812
339.54	1.783
339.75	1.775
339.96	1.766
340.16	1.763
340.37	1.822
340.58	1.780
340.79	1.757
340.99	1.740
341.20	1.684
341.41	1.648
341.62	1.627
341.82	1.690
342.03	1.646
342.24	1.580
342.44	1.622
342.65	1.563
342.86	1.584
343.07	1.570
343.27	1.600
343.48	1.586
343.69	1.588
343.90	1.610
344.10	1.562
344.31	1.599
344.52	1.673
344.72	1.679
344.93	1.674
345.14	1.677
345.35	1.661
345.55	1.664
345.76	1.677
345.97	1.671
346.18	1.655
346.38	1.722
346.59	1.699
346.80	1.661
347.00	1.625
347.21	1.648
347.42	1.671
347.62	1.751
347.83	1.692
348.04	1.707
348.25	1.690
348.45	1.706
348.66	1.676
348.87	1.724
349.07	1.711
349.28	1.752
349.49	1.711
349.70	1.745
349.90	1.683
350.11	1.692
350.32	1.644
350.52	1.681
350.73	1.671
350.94	1.689
351.14	1.634
351.35	1.680
351.56	1.635
351.76	1.672
351.97	1.617
352.18	1.650
352.39	1.644
352.59	1.708
352.80	1.684
353.01	1.717
353.21	1.718
353.42	1.745
353.63	1.716
353.83	1.704
354.04	1.685
354.25	1.676
354.45	1.612
354.66	1.641
354.87	1.622
355.07	1.617
355.28	1.570
355.49	1.547
355.69	1.551
355.90	1.547
356.11	1.608
356.31	1.626
356.52	1.662
356.73	1.695
356.93	1.670
357.14	1.641
357.35	1.665
357.55	1.687
357.76	1.653
357.97	1.615
358.17	1.654
358.38	1.641
358.59	1.646
358.79	1.607
359.00	1.597
359.21	1.616
359.41	1.616
359.62	1.609
359.83	1.612
360.03	1.616
360.24	1.665
360.44	1.649
360.65	1.634
360.86	1.626
361.06	1.633
361.27	1.633
361.48	1.610
361.68	1.648
361.89	1.637
362.10	1.613
362.30	1.638
362.51	1.625
362.72	1.639
362.92	1.641
363.13	1.606
363.33	1.622
363.54	1.647
363.75	1.675
363.95	1.655
364.16	1.660
364.37	1.703
364.57	1.724
364.78	1.715
364.98	1.666
365.19	1.633
365.40	1.670
365.60	1.654
365.81	1.673
366.02	1.657
366.22	1.668
366.43	1.684
366.63	1.640
366.84	1.623
367.05	1.624
367.25	1.614
367.46	1.622
367.66	1.625
367.87	1.641
368.08	1.600
368.28	1.586
368.49	1.571
368.69	1.517
368.90	1.510
369.11	1.515
369.31	1.532
369.52	1.587
369.72	1.613
369.93	1.590
370.14	1.579
370.34	1.589
370.55	1.604
370.75	1.617
370.96	1.647
371.17	1.680
371.37	1.672
371.58	1.655
371.78	1.640
371.99	1.629
372.20	1.618
372.40	1.614
372.61	1.592
372.81	1.606
373.02	1.617
373.23	1.586
373.43	1.559
373.64	1.537
373.84	1.528
374.05	1.555
374.25	1.556
374.46	1.556
374.67	1.550
374.87	1.592
375.08	1.581
375.28	1.543
375.49	1.547
375.69	1.562
375.90	1.569
376.11	1.578
376.31	1.522
376.52	1.528
376.72	1.536
376.93	1.538
377.13	1.480
377.34	1.473
377.55	1.503
377.75	1.513
377.96	1.469
378.16	1.474
378.37	1.498
378.57	1.537
378.78	1.547
378.98	1.557
379.19	1.569
379.40	1.571
379.60	1.549
379.81	1.536
380.01	1.527
380.22	1.560
380.42	1.554
380.63	1.544
380.83	1.513
381.04	1.476
381.24	1.467
381.45	1.474
381.66	1.505
381.86	1.533
382.07	1.551
382.27	1.585
382.48	1.563
382.68	1.566
382.89	1.564
383.09	1.591
383.30	1.625
383.50	1.618
383.71	1.588
383.91	1.592
384.12	1.589
384.32	1.574
384.53	1.547
384.73	1.582
384.94	1.579
385.15	1.571
385.35	1.556
385.56	1.533
385.76	1.501
385.97	1.523
386.17	1.507
386.38	1.503
386.58	1.479
386.79	1.525
386.99	1.495
387.20	1.500
387.40	1.485
387.61	1.515
387.81	1.519
388.02	1.563
388.22	1.542
388.43	1.542
388.63	1.562
388.84	1.594
389.04	1.556
389.25	1.585
389.45	1.572
389.66	1.596
389.86	1.563
390.07	1.578
390.27	1.563
390.48	1.558
390.68	1.577
390.89	1.581
391.09	1.593
391.30	1.601
391.50	1.603
391.71	1.632
391.91	1.632
392.12	1.666
392.32	1.654
392.53	1.667
392.73	1.681
392.94	1.664
393.14	1.654
393.35	1.626
393.55	1.633
393.75	1.623
393.96	1.588
394.16	1.574
394.37	1.534
394.57	1.560
394.78	1.572
394.98	1.554
395.19	1.547
395.39	1.532
395.60	1.534
395.80	1.533
396.01	1.527
396.21	1.560
396.42	1.567
396.62	1.558
396.83	1.537
397.03	1.533
397.23	1.555
397.44	1.585
397.64	1.595
397.85	1.598
398.05	1.597
398.26	1.590
398.46	1.576
398.67	1.556
398.87	1.569
399.08	1.543
399.28	1.543
399.48	1.548
399.69	1.509
399.89	1.525
400.10	1.529
400.30	1.511
400.51	1.502
400.71	1.496
400.92	1.519
401.12	1.532
401.32	1.555
401.53	1.541
401.73	1.526
401.94	1.537
402.14	1.523
402.35	1.533
402.55	1.544
402.75	1.555
402.96	1.558
403.16	1.567
403.37	1.559
403.57	1.570
403.78	1.576
403.98	1.589
404.18	1.579
404.39	1.573
404.59	1.564
404.80	1.557
405.00	1.543
405.21	1.571
405.41	1.553
405.61	1.562
405.82	1.570
406.02	1.582
406.23	1.568
406.43	1.590
406.63	1.592
406.84	1.608
407.04	1.630
407.25	1.659
407.45	1.630
407.65	1.639
407.86	1.622
408.06	1.600
408.27	1.589
408.47	1.613
408.67	1.596
408.88	1.591
409.08	1.574
409.29	1.577
409.49	1.560
409.69	1.564
409.90	1.578
410.10	1.592
410.31	1.598
410.51	1.611
410.71	1.599
410.92	1.584
411.12	1.584
411.33	1.592
411.53	1.590
411.73	1.589
411.94	1.607
412.14	1.573
412.34	1.571
412.55	1.574
412.75	1.574
412.96	1.576
413.16	1.595
413.36	1.600
413.57	1.599
413.77	1.577
413.97	1.611
414.18	1.598
414.38	1.600
414.59	1.619
414.79	1.614
414.99	1.578
415.20	1.574
415.40	1.590
415.60	1.600
415.81	1.584
416.01	1.576
416.21	1.558
416.42	1.570
416.62	1.601
416.83	1.583
417.03	1.583
417.23	1.588
417.44	1.584
417.64	1.564
417.84	1.551
418.05	1.572
418.25	1.578
418.45	1.572
418.66	1.554
418.86	1.531
419.06	1.542
419.27	1.541
419.47	1.557
419.67	1.558
419.88	1.556
420.08	1.540
420.28	1.514
420.49	1.512
420.69	1.514
420.89	1.518
421.10	1.528
421.30	1.521
421.50	1.523
421.71	1.512
421.91	1.515
422.11	1.535
422.32	1.555
422.52	1.566
422.72	1.588
422.93	1.598
423.13	1.605
423.33	1.592
423.54	1.584
423.74	1.580
423.94	1.587
424.15	1.569
424.35	1.562
424.55	1.553
424.76	1.560
424.96	1.546
425.16	1.534
425.36	1.531
425.57	1.551
425.77	1.550
425.97	1.553
426.18	1.561
426.38	1.573
426.58	1.578
426.79	1.595
426.99	1.581
427.19	1.601
427.39	1.611
427.60	1.616
427.80	1.611
428.00	1.635
428.21	1.628
428.41	1.628
428.61	1.641
428.82	1.635
429.02	1.649
429.22	1.678
429.42	1.650
429.63	1.655
429.83	1.640
430.03	1.647
430.24	1.636
430.44	1.659
430.64	1.655
430.84	1.667
431.05	1.655
431.25	1.633
431.45	1.611
431.65	1.616
431.86	1.609
432.06	1.619
432.26	1.609
432.47	1.608
432.67	1.604
432.87	1.605
433.07	1.594
433.28	1.608
433.48	1.618
433.68	1.624
433.88	1.639
434.09	1.644
434.29	1.641
434.49	1.638
434.69	1.641
434.90	1.633
435.10	1.619
435.30	1.634
435.51	1.644
435.71	1.641
435.91	1.651
436.11	1.644
436.32	1.637
436.52	1.639
436.72	1.653
436.92	1.662
437.13	1.665
437.33	1.669
437.53	1.647
437.73	1.634
437.93	1.628
438.14	1.624
438.34	1.611
438.54	1.621
438.74	1.621
438.95	1.609
439.15	1.604
439.35	1.616
439.55	1.619
439.76	1.636
439.96	1.642
440.16	1.646
440.36	1.649
440.56	1.650
440.77	1.637
440.97	1.640
441.17	1.640
441.37	1.646
441.58	1.635
441.78	1.648
441.98	1.641
442.18	1.639
442.38	1.635
442.59	1.648
442.79	1.660
442.99	1.686
443.19	1.689
443.40	1.706
443.60	1.700
443.80	1.696
444.00	1.678
444.20	1.665
444.41	1.653
444.61	1.657
444.81	1.644
445.01	1.646
445.21	1.636
445.42	1.634
445.62	1.622
445.82	1.617
446.02	1.625
446.22	1.625
446.43	1.625
446.63	1.630
446.83	1.624
447.03	1.624
447.23	1.625
447.44	1.626
447.64	1.623
447.84	1.629
448.04	1.629
448.24	1.629
448.44	1.633
448.65	1.640
448.85	1.637
449.05	1.665
449.25	1.661
449.45	1.665
449.65	1.674
449.86	1.692
450.06	1.696
450.26	1.709
450.46	1.708
450.66	1.713
450.87	1.727
451.07	1.739
451.27	1.722
451.47	1.745
451.67	1.747
451.87	1.742
452.08	1.730
452.28	1.734
452.48	1.724
452.68	1.735
452.88	1.738
453.08	1.738
453.28	1.740
453.49	1.739
453.69	1.730
453.89	1.736
454.09	1.742
454.29	1.747
454.49	1.748
454.70	1.755
454.90	1.735
455.10	1.736
455.30	1.720
455.50	1.722
455.70	1.714
455.90	1.714
456.11	1.695
456.31	1.680
456.51	1.682
456.71	1.671
456.91	1.677
457.11	1.704
457.31	1.697
457.51	1.721
457.72	1.713
457.92	1.723
458.12	1.713
458.32	1.721
458.52	1.739
458.72	1.737
458.92	1.725
459.12	1.724
459.33	1.702
459.53	1.713
459.73	1.719
459.93	1.722
460.13	1.733
460.33	1.733
460.53	1.722
460.73	1.710
460.93	1.712
461.14	1.725
461.34	1.733
461.54	1.749
461.74	1.749
461.94	1.744
462.14	1.749
462.34	1.740
462.54	1.750
462.74	1.768
462.95	1.774
463.15	1.778
463.35	1.777
463.55	1.766
463.75	1.768
463.95	1.772
464.15	1.767
464.35	1.771
464.55	1.758
464.75	1.755
464.95	1.760
465.16	1.764
465.36	1.755
465.56	1.755
465.76	1.767
465.96	1.764
466.16	1.769
466.36	1.764
466.56	1.755
466.76	1.762
466.96	1.765
467.16	1.762
467.36	1.757
467.57	1.760
467.77	1.758
467.97	1.747
468.17	1.750
468.37	1.738
468.57	1.748
468.77	1.757
468.97	1.761
469.17	1.767
469.37	1.767
469.57	1.774
469.77	1.781
469.97	1.784
470.17	1.788
470.37	1.781
470.57	1.781
470.78	1.761
470.98	1.764
471.18	1.758
471.38	1.754
471.58	1.761
471.78	1.762
471.98	1.760
472.18	1.776
472.38	1.784
472.58	1.797
472.78	1.809
472.98	1.827
473.18	1.822
473.38	1.827
473.58	1.831
473.78	1.826
473.98	1.827
474.18	1.849
474.38	1.829
474.58	1.835
474.78	1.838
474.98	1.835
475.18	1.841
475.38	1.848
475.58	1.847
475.79	1.848
475.99	1.848
476.19	1.852
476.39	1.827
476.59	1.834
476.79	1.835
476.99	1.827
477.19	1.839
477.39	1.831
477.59	1.827
477.79	1.826
477.99	1.821
478.19	1.819
478.39	1.818
478.59	1.830
478.79	1.832
478.99	1.829
479.19	1.835
479.39	1.830
479.59	1.830
479.79	1.822
479.99	1.835
480.19	1.835
480.39	1.831
480.59	1.833
480.79	1.834
480.99	1.836
481.19	1.840
481.39	1.840
481.59	1.834
481.79	1.847
481.99	1.861
482.19	1.863
482.39	1.875
482.59	1.885
482.79	1.886
482.99	1.880
483.19	1.894
483.39	1.920
483.59	1.936
483.79	1.939
483.99	1.930
484.19	1.919
484.39	1.916
484.58	1.915
484.78	1.915
484.98	1.915
485.18	1.922
485.38	1.918
485.58	1.899
485.78	1.879
485.98	1.873
486.18	1.882
486.38	1.898
486.58	1.901
486.78	1.900
486.98	1.907
487.18	1.916
487.38	1.914
487.58	1.915
487.78	1.915
487.98	1.922
488.18	1.925
488.38	1.922
488.58	1.921
488.78	1.929
488.98	1.935
489.18	1.939
489.37	1.935
489.57	1.943
489.77	1.952
489.97	1.963
490.17	1.970
490.37	1.978
490.57	1.981
490.77	1.983
490.97	1.978
491.17	1.974
491.37	1.973
491.57	1.984
491.77	1.982
491.97	1.985
492.17	1.980
492.37	1.982
492.56	1.979
492.76	1.985
492.96	1.990
493.16	1.999
493.36	2.010
493.56	2.011
493.76	2.005
493.96	2.016
494.16	2.017
494.36	2.024
494.56	2.025
494.76	2.038
494.95	2.039
495.15	2.047
495.35	2.043
495.55	2.047
495.75	2.052
495.95	2.064
496.15	2.059
496.35	2.053
496.55	2.055
496.75	2.060
496.95	2.058
497.14	2.062
497.34	2.063
497.54	2.075
497.74	2.076
497.94	2.086
498.14	2.086
498.34	2.095
498.54	2.107
498.74	2.109
498.93	2.115
499.13	2.119
499.33	2.132
499.53	2.133
499.73	2.131
499.93	2.135
500.13	2.130
500.33	2.132
500.53	2.133
500.72	2.137
500.92	2.139
501.12	2.145
501.32	2.146
501.52	2.143
501.72	2.143
501.92	2.151
502.12	2.154
502.31	2.157
502.51	2.155
502.71	2.163
502.91	2.157
503.11	2.166
503.31	2.166
503.51	2.175
503.70	2.170
503.90	2.191
504.10	2.196
504.30	2.187
504.50	2.186
504.70	2.201
504.90	2.209
505.09	2.221
505.29	2.218
505.49	2.217
505.69	2.219
505.89	2.224
506.09	2.210
506.29	2.201
506.48	2.216
506.68	2.224
506.88	2.219
507.08	2.217
507.28	2.219
507.48	2.229
507.67	2.229
507.87	2.233
508.07	2.242
508.27	2.250
508.47	2.261
508.67	2.273
508.86	2.274
509.06	2.274
509.26	2.271
509.46	2.285
509.66	2.280
509.85	2.286
510.05	2.294
510.25	2.296
510.45	2.301
510.65	2.301
510.85	2.291
511.04	2.297
511.24	2.305
511.44	2.315
511.64	2.313
511.84	2.324
512.03	2.327
512.23	2.327
512.43	2.327
512.63	2.326
512.83	2.335
513.02	2.351
513.22	2.355
513.42	2.369
513.62	2.378
513.82	2.377
514.01	2.384
514.21	2.394
514.41	2.401
514.61	2.408
514.81	2.414
515.00	2.413
515.20	2.410
515.40	2.422
515.60	2.412
515.80	2.411
515.99	2.415
516.19	2.408
516.39	2.409
516.59	2.409
516.78	2.415
516.98	2.427
517.18	2.420
517.38	2.420
517.58	2.419
517.77	2.433
517.97	2.431
518.17	2.429
518.37	2.445
518.56	2.449
518.76	2.455
518.96	2.452
519.16	2.450
519.36	2.459
519.55	2.463
519.75	2.467
519.95	2.471
520.15	2.479
520.34	2.488
520.54	2.483
520.74	2.495
520.94	2.504
521.13	2.517
521.33	2.524
521.53	2.533
521.73	2.532
521.92	2.526
522.12	2.537
522.32	2.542
522.52	2.556
522.71	2.571
522.91	2.569
523.11	2.564
523.31	2.563
523.50	2.564
523.70	2.575
523.90	2.584
524.09	2.601
524.29	2.602
524.49	2.608
524.69	2.608
524.88	2.609
525.08	2.613
525.28	2.615
525.48	2.622
525.67	2.628
525.87	2.625
526.07	2.628
526.26	2.630
526.46	2.631
526.66	2.636
526.86	2.639
527.05	2.638
527.25	2.644
527.45	2.650
527.64	2.643
527.84	2.646
528.04	2.650
528.24	2.656
528.43	2.661
528.63	2.660
528.83	2.659
529.02	2.660
529.22	2.662
529.42	2.663
529.62	2.666
529.81	2.672
530.01	2.673
530.21	2.671
530.40	2.668
530.60	2.663
530.80	2.669
530.99	2.677
531.19	2.677
531.39	2.682
531.58	2.689
531.78	2.697
531.98	2.703
532.18	2.709
532.37	2.724
532.57	2.730
532.77	2.740
532.96	2.738
533.16	2.745
533.36	2.762
533.55	2.765
533.75	2.761
533.95	2.762
534.14	2.764
534.34	2.772
534.54	2.778
534.73	2.796
534.93	2.801
535.13	2.814
535.32	2.815
535.52	2.820
535.72	2.826
535.91	2.846
536.11	2.842
536.31	2.853
536.50	2.861
536.70	2.865
536.90	2.857
537.09	2.872
537.29	2.872
537.48	2.885
537.68	2.889
537.88	2.893
538.07	2.891
538.27	2.913
538.47	2.921
538.66	2.923
538.86	2.932
539.06	2.945
539.25	2.954
539.45	2.963
539.65	2.967
539.84	2.980
540.04	2.982
540.23	2.994
540.43	2.991
540.63	2.995
540.82	2.991
541.02	2.994
541.22	2.989
541.41	2.985
541.61	2.981
541.80	2.978
542.00	2.967
542.20	2.966
542.39	2.961
542.59	2.965
542.79	2.965
542.98	2.967
543.18	2.964
543.37	2.973
543.57	2.972
543.77	2.984
543.96	2.985
544.16	2.995
544.35	3.011
544.55	3.026
544.75	3.033
544.94	3.037
545.14	3.044
545.33	3.058
545.53	3.063
545.73	3.076
545.92	3.084
546.12	3.094
546.31	3.105
546.51	3.108
546.71	3.110
546.90	3.110
547.10	3.120
547.29	3.123
547.49	3.133
547.69	3.144
547.88	3.148
548.08	3.145
548.27	3.151
548.47	3.156
548.66	3.162
548.86	3.163
549.06	3.167
549.25	3.179
549.45	3.192
549.64	3.192
549.84	3.183
550.03	3.187
550.23	3.200
550.43	3.214
550.62	3.219
550.82	3.226
551.01	3.241
551.21	3.249
551.40	3.252
551.60	3.273
551.80	3.278
551.99	3.283
552.19	3.287
552.38	3.278
552.58	3.276
552.77	3.284
552.97	3.284
553.16	3.277
553.36	3.281
553.56	3.289
553.75	3.279
553.95	3.272
554.14	3.272
554.34	3.285
554.53	3.303
554.73	3.304
554.92	3.303
555.12	3.308
555.31	3.320
555.51	3.333
555.70	3.326
555.90	3.330
556.10	3.345
556.29	3.363
556.49	3.358
556.68	3.370
556.88	3.391
557.07	3.390
557.27	3.405
557.46	3.404
557.66	3.405
557.85	3.419
558.05	3.425
558.24	3.428
558.44	3.433
558.63	3.434
558.83	3.427
559.02	3.439
559.22	3.449
559.41	3.441
559.61	3.440
559.80	3.451
560.00	3.451
560.19	3.458
560.39	3.466
560.58	3.479
560.78	3.504
560.97	3.509
561.17	3.507
561.36	3.509
561.56	3.508
561.75	3.520
561.95	3.521
562.14	3.540
562.34	3.550
562.53	3.561
562.73	3.566
562.92	3.559
563.12	3.569
563.31	3.567
563.51	3.579
563.70	3.594
563.90	3.609
564.09	3.612
564.29	3.602
564.48	3.598
564.68	3.609
564.87	3.610
565.07	3.611
565.26	3.615
565.45	3.622
565.65	3.618
565.84	3.620
566.04	3.609
566.23	3.620
566.43	3.631
566.62	3.638
566.82	3.631
567.01	3.627
567.21	3.632
567.40	3.628
567.60	3.633
567.79	3.645
567.98	3.663
568.18	3.675
568.37	3.676
568.57	3.681
568.76	3.677
568.96	3.688
569.15	3.711
569.35	3.734
569.54	3.745
569.73	3.741
569.93	3.736
570.12	3.731
570.32	3.740
570.51	3.744
570.71	3.746
570.90	3.759
571.09	3.763
571.29	3.765
571.48	3.766
571.68	3.772
571.87	3.785
572.07	3.798
572.26	3.800
572.45	3.814
572.65	3.822
572.84	3.823
573.04	3.835
573.23	3.839
573.43	3.841
573.62	3.850
573.81	3.860
574.01	3.859
574.20	3.854
574.40	3.867
574.59	3.862
574.78	3.855
574.98	3.859
575.17	3.850
575.37	3.847
575.56	3.852
575.75	3.846
575.95	3.852
576.14	3.862
576.34	3.858
576.53	3.858
576.72	3.859
576.92	3.876
577.11	3.890
577.31	3.904
577.50	3.913
577.69	3.915
577.89	3.924
578.08	3.920
578.28	3.928
578.47	3.946
578.66	3.963
578.86	3.983
579.05	3.985
579.24	3.991
579.44	3.995
579.63	4.004
579.83	4.015
580.02	4.024
580.21	4.034
580.41	4.033
580.60	4.052
580.79	4.052
580.99	4.060
581.18	4.066
581.38	4.063
581.57	4.076
581.76	4.073
581.96	4.078
582.15	4.089
582.34	4.090
582.54	4.096
582.73	4.092
582.92	4.083
583.12	4.077
583.31	4.078
583.50	4.075
583.70	4.072
583.89	4.084
584.08	4.087
584.28	4.086
584.47	4.091
584.66	4.110
584.86	4.109
585.05	4.129
585.24	4.124
585.44	4.129
585.63	4.157
585.82	4.167
586.02	4.169
586.21	4.177
586.40	4.168
586.60	4.189
586.79	4.185
586.98	4.196
587.18	4.203
587.37	4.213
587.56	4.223
587.76	4.225
587.95	4.232
588.14	4.240
588.34	4.244
588.53	4.262
588.72	4.263
588.92	4.267
589.11	4.278
589.30	4.275
589.50	4.300
589.69	4.297
589.88	4.300
590.07	4.300
590.27	4.316
590.46	4.313
590.65	4.318
590.85	4.326
591.04	4.330
591.23	4.330
591.43	4.333
591.62	4.326
591.81	4.337
592.00	4.343
592.20	4.349
592.39	4.355
592.58	4.368
592.78	4.371
592.97	4.372
593.16	4.376
593.35	4.384
593.55	4.373
593.74	4.364
593.93	4.382
594.13	4.381
594.32	4.386
594.51	4.394
594.70	4.403
594.90	4.400
595.09	4.397
595.28	4.401
595.47	4.399
595.67	4.424
595.86	4.445
596.05	4.441
596.24	4.447
596.44	4.448
596.63	4.437
596.82	4.426
597.02	4.427
597.21	4.436
597.40	4.455
597.59	4.461
597.79	4.454
597.98	4.454
598.17	4.458
598.36	4.465
598.56	4.478
598.75	4.480
598.94	4.490
599.13	4.515
599.32	4.523
599.52	4.507
599.71	4.520
599.90	4.533
600.09	4.546
600.29	4.548
600.48	4.552
600.67	4.543
600.86	4.559
601.06	4.561
601.25	4.568
601.44	4.573
601.63	4.593
601.82	4.588
602.02	4.604
602.21	4.609
602.40	4.623
602.59	4.624
602.79	4.641
602.98	4.644
603.17	4.659
603.36	4.661
603.55	4.662
603.75	4.663
603.94	4.668
604.13	4.653
604.32	4.648
604.51	4.645
604.71	4.654
604.90	4.657
605.09	4.658
605.28	4.655
605.47	4.658
605.67	4.669
605.86	4.679
606.05	4.696
606.24	4.720
606.43	4.738
606.63	4.759
606.82	4.757
607.01	4.757
607.20	4.771
607.39	4.799
607.59	4.785
607.78	4.794
607.97	4.790
608.16	4.779
608.35	4.788
608.54	4.766
608.74	4.758
608.93	4.779
609.12	4.773
609.31	4.766
609.50	4.775
609.69	4.811
609.89	4.799
610.08	4.814
610.27	4.829
610.46	4.841
610.65	4.864
610.84	4.873
611.04	4.866
611.23	4.880
611.42	4.905
611.61	4.888
611.80	4.878
611.99	4.888
612.19	4.884
612.38	4.901
612.57	4.887
612.76	4.888
612.95	4.899
613.14	4.920
613.33	4.929
613.53	4.931
613.72	4.962
613.91	4.951
614.10	4.965
614.29	4.981
614.48	4.981
614.67	4.993
614.86	5.008
615.06	5.000
615.25	4.995
615.44	5.024
615.63	5.024
615.82	5.017
616.01	5.038
616.20	5.044
616.39	5.038
616.59	5.030
616.78	5.054
616.97	5.056
617.16	5.073
617.35	5.079
617.54	5.052
617.73	5.052
617.92	5.071
618.12	5.074
618.31	5.073
618.50	5.089
618.69	5.092
618.88	5.090
619.07	5.091
619.26	5.090
619.45	5.096
619.64	5.119
619.83	5.142
620.03	5.153
620.22	5.164
620.41	5.182
620.60	5.176
620.79	5.195
620.98	5.179
621.17	5.202
621.36	5.204
621.55	5.229
621.74	5.243
621.93	5.249
622.12	5.243
622.32	5.252
622.51	5.241
622.70	5.254
622.89	5.248
623.08	5.264
623.27	5.257
623.46	5.265
623.65	5.249
623.84	5.243
624.03	5.243
624.22	5.249
624.41	5.230
624.60	5.252
624.79	5.257
624.99	5.276
625.18	5.286
625.37	5.290
625.56	5.311
625.75	5.328
625.94	5.341
626.13	5.346
626.32	5.328
626.51	5.357
626.70	5.347
626.89	5.350
627.08	5.362
627.27	5.372
627.46	5.371
627.65	5.370
627.84	5.375
628.03	5.377
628.22	5.373
628.41	5.406
628.60	5.402
628.79	5.416
628.98	5.405
629.17	5.385
629.37	5.381
629.56	5.391
629.75	5.387
629.94	5.387
630.13	5.386
630.32	5.400
630.51	5.392
630.70	5.408
630.89	5.413
631.08	5.454
631.27	5.473
631.46	5.500
631.65	5.521
631.84	5.529
632.03	5.523
632.22	5.531
632.41	5.543
632.60	5.544
632.79	5.549
632.98	5.558
633.17	5.548
633.36	5.552
633.55	5.535
633.74	5.529
633.93	5.552
634.12	5.563
634.31	5.583
634.50	5.592
634.69	5.610
634.88	5.605
635.07	5.613
635.26	5.606
635.45	5.607
635.64	5.605
635.83	5.611
636.02	5.599
636.21	5.610
636.40	5.600
636.59	5.592
636.78	5.587
636.96	5.602
637.15	5.593
637.34	5.608
637.53	5.614
637.72	5.630
637.91	5.621
638.10	5.630
638.29	5.664
638.48	5.679
638.67	5.674
638.86	5.686
639.05	5.697
639.24	5.712
639.43	5.738
639.62	5.749
639.81	5.772
640.00	5.773
640.19	5.793
640.38	5.784
640.57	5.792
640.76	5.807
640.95	5.802
641.14	5.798
641.32	5.816
641.51	5.802
641.70	5.812
641.89	5.814
642.08	5.846
642.27	5.846
642.46	5.841
642.65	5.823
642.84	5.832
643.03	5.850
643.22	5.855
643.41	5.866
643.60	5.902
643.79	5.919
643.98	5.915
644.16	5.916
644.35	5.915
644.54	5.918
644.73	5.928
644.92	5.934
645.11	5.928
645.30	5.937
645.49	5.949
645.68	5.935
645.87	5.938
646.06	5.936
646.24	5.936
646.43	5.960
646.62	5.976
646.81	6.005
647.00	6.002
647.19	6.011
647.38	6.008
647.57	5.990
647.76	5.995
647.95	6.003
648.13	6.026
648.32	6.050
648.51	6.054
648.70	6.037
648.89	6.037
649.08	6.066
649.27	6.083
649.46	6.111
649.65	6.115
649.83	6.113
650.02	6.105
650.21	6.113
650.40	6.098
650.59	6.078
650.78	6.108
650.97	6.104
651.16	6.096
651.34	6.105
651.53	6.092
651.72	6.101
651.91	6.092
652.10	6.100
652.29	6.106
652.48	6.148
652.66	6.173
652.85	6.166
653.04	6.183
653.23	6.177
653.42	6.167
653.61	6.168
653.80	6.168
653.98	6.171
654.17	6.176
654.36	6.176
654.55	6.142
654.74	6.142
654.93	6.163
655.11	6.165
655.30	6.181
655.49	6.227
655.68	6.245
655.87	6.275
656.06	6.302
656.24	6.312
656.43	6.313
656.62	6.339
656.81	6.346
657.00	6.363
657.19	6.376
657.37	6.400
657.56	6.378
657.75	6.318
657.94	6.314
658.13	6.305
658.31	6.310
658.50	6.316
658.69	6.321
658.88	6.309
659.07	6.304
659.26	6.304
659.44	6.290
659.63	6.286
659.82	6.349
660.01	6.345
660.20	6.371
660.38	6.395
660.57	6.417
660.76	6.399
660.95	6.445
661.14	6.445
661.32	6.445
661.51	6.463
661.70	6.494
661.89	6.508
662.08	6.518
662.26	6.517
662.45	6.487
662.64	6.487
662.83	6.531
663.01	6.495
663.20	6.499
663.39	6.503
663.58	6.491
663.77	6.466
663.95	6.489
664.14	6.504
664.33	6.527
664.52	6.529
664.70	6.519
664.89	6.504
665.08	6.532
665.27	6.556
665.45	6.580
665.64	6.601
665.83	6.620
666.02	6.623
666.20	6.610
666.39	6.581
666.58	6.623
666.77	6.623
666.95	6.619
667.14	6.619
667.33	6.635
667.52	6.646
667.70	6.649
667.89	6.644
668.08	6.633
668.27	6.649
668.45	6.680
668.64	6.674
668.83	6.694
669.02	6.713
669.20	6.714
669.39	6.713
669.58	6.720
669.77	6.739
669.95	6.738
670.14	6.719
670.33	6.734
670.51	6.755
670.70	6.781
670.89	6.799
671.08	6.811
671.26	6.838
671.45	6.817
671.64	6.797
671.82	6.804
672.01	6.829
672.20	6.870
672.39	6.892
672.57	6.891
672.76	6.887
672.95	6.894
673.13	6.894
673.32	6.885
673.51	6.881
673.70	6.908
673.88	6.903
674.07	6.904
674.26	6.916
674.44	6.903
674.63	6.883
674.82	6.864
675.00	6.854
675.19	6.866
675.38	6.887
675.56	6.923
675.75	6.933
675.94	6.922
676.12	6.925
676.31	6.917
676.50	6.906
676.69	6.945
676.87	6.982
677.06	6.970
677.25	6.969
677.43	6.956
677.62	6.950
677.81	6.953
677.99	6.996
678.18	7.005
678.37	7.022
678.55	7.047
678.74	7.032
678.93	7.023
679.11	7.018
679.30	6.999
679.48	7.021
679.67	7.042
679.86	7.041
680.04	7.042
680.23	7.040
680.42	7.040
680.60	7.042
680.79	7.060
680.98	7.075
681.16	7.104
681.35	7.149
681.54	7.118
681.72	7.106
681.91	7.120
682.10	7.118
682.28	7.130
682.47	7.124
682.65	7.133
682.84	7.113
683.03	7.107
683.21	7.116
683.40	7.119
683.59	7.171
683.77	7.191
683.96	7.189
684.14	7.207
684.33	7.209
684.52	7.248
684.70	7.227
684.89	7.251
685.07	7.262
685.26	7.280
685.45	7.265
685.63	7.256
685.82	7.267
686.00	7.289
686.19	7.303
686.38	7.315
686.56	7.324
686.75	7.349
686.93	7.352
687.12	7.347
687.31	7.349
687.49	7.363
687.68	7.373
687.86	7.365
688.05	7.361
688.24	7.354
688.42	7.367
688.61	7.349
688.79	7.351
688.98	7.357
689.17	7.369
689.35	7.362
689.54	7.363
689.72	7.355
689.91	7.371
690.09	7.399
690.28	7.412
690.47	7.398
690.65	7.406
690.84	7.429
691.02	7.452
691.21	7.454
691.39	7.478
691.58	7.509
691.76	7.527
691.95	7.541
692.14	7.548
692.32	7.543
692.51	7.588
692.69	7.616
692.88	7.618
693.06	7.596
693.25	7.606
693.43	7.602
693.62	7.604
693.81	7.604
693.99	7.602
694.18	7.585
694.36	7.579
694.55	7.574
694.73	7.563
694.92	7.556
695.10	7.568
695.29	7.582
695.47	7.595
695.66	7.587
695.84	7.609
696.03	7.622
696.21	7.635
696.40	7.671
696.59	7.676
696.77	7.686
696.96	7.699
697.14	7.730
697.33	7.757
697.51	7.776
697.70	7.783
697.88	7.789
698.07	7.774
698.25	7.781
698.44	7.781
698.62	7.765
698.81	7.756
698.99	7.788
699.18	7.769
699.36	7.767
699.55	7.754
699.73	7.752
699.92	7.746
700.10	7.758
700.29	7.758
700.47	7.759
700.66	7.773
700.84	7.800
701.03	7.776
701.21	7.796
701.40	7.787
701.58	7.797
701.77	7.814
701.95	7.838
702.13	7.835
702.32	7.862
702.50	7.874
702.69	7.891
702.87	7.868
703.06	7.908
703.24	7.910
703.43	7.923
703.61	7.953
703.80	7.960
703.98	7.943
704.17	7.978
704.35	7.968
704.54	7.968
704.72	7.973
704.90	7.984
705.09	7.964
705.27	8.004
705.46	8.023
705.64	7.978
705.83	7.992
706.01	8.006
706.20	8.022
706.38	8.011
706.56	8.018
706.75	8.011
706.93	8.030
707.12	8.066
707.30	8.057
707.49	8.077
707.67	8.127
707.86	8.126
708.04	8.137
708.22	8.095
708.41	8.116
708.59	8.104
708.78	8.138
708.96	8.164
709.14	8.167
709.33	8.183
709.51	8.195
709.70	8.192
709.88	8.176
710.07	8.190
710.25	8.248
710.43	8.270
710.62	8.327
710.80	8.324
710.99	8.329
711.17	8.323
711.35	8.306
711.54	8.282
711.72	8.308
711.91	8.364
712.09	8.359
712.27	8.340
712.46	8.340
712.64	8.324
712.83	8.306
713.01	8.286
713.19	8.285
713.38	8.290
713.56	8.306
713.75	8.306
713.93	8.295
714.11	8.295
714.30	8.317
714.48	8.321
714.66	8.331
714.85	8.353
715.03	8.400
715.22	8.400
715.40	8.410
715.58	8.430
715.77	8.453
715.95	8.457
716.13	8.479
716.32	8.431
716.50	8.416
716.68	8.423
716.87	8.429
717.05	8.420
717.24	8.432
717.42	8.444
717.60	8.429
717.79	8.425
717.97	8.422
718.15	8.434
718.34	8.491
718.52	8.570
718.70	8.565
718.89	8.582
719.07	8.559
719.25	8.576
719.44	8.604
719.62	8.622
719.80	8.614
719.99	8.616
720.17	8.627
720.35	8.642
720.54	8.581
720.72	8.607
720.90	8.592
721.09	8.637
721.27	8.637
721.45	8.618
721.64	8.611
721.82	8.607
722.00	8.643
722.19	8.617
722.37	8.631
722.55	8.651
722.74	8.674
722.92	8.724
723.10	8.733
723.28	8.789
723.47	8.826
723.65	8.868
723.83	8.866
724.02	8.835
724.20	8.876
724.38	8.878
724.57	8.872
724.75	8.902
724.93	8.898
725.11	8.927
725.30	8.918
725.48	8.935
725.66	8.916
725.85	8.932
726.03	8.924
726.21	8.920
726.39	8.914
726.58	8.952
726.76	8.934
726.94	8.933
727.13	8.892
727.31	8.887
727.49	8.891
727.67	8.937
727.86	8.966
728.04	9.001
728.22	8.978
728.40	9.024
728.59	9.016
728.77	8.996
728.95	9.018
729.13	9.024
729.32	9.003
729.50	8.980
729.68	8.970
729.86	8.974
730.05	9.011
730.23	9.074
730.41	9.050
730.59	9.069
730.78	9.082
730.96	9.088
731.14	9.125
731.32	9.159
731.51	9.175
731.69	9.210
731.87	9.231
732.05	9.206
732.24	9.205
732.42	9.234
732.60	9.218
732.78	9.235
732.97	9.229
733.15	9.255
733.33	9.265
733.51	9.279
733.69	9.234
733.88	9.203
734.06	9.216
734.24	9.207
734.42	9.190
734.60	9.230
734.79	9.234
734.97	9.251
735.15	9.208
735.33	9.200
735.52	9.198
735.70	9.212
735.88	9.243
736.06	9.264
736.24	9.268
736.43	9.294
736.61	9.263
736.79	9.243
736.97	9.235
737.15	9.238
737.34	9.253
737.52	9.239
737.70	9.283
737.88	9.321
738.06	9.299
738.24	9.321
738.43	9.318
738.61	9.316
738.79	9.308
738.97	9.325
739.15	9.334
739.33	9.323
739.52	9.356
739.70	9.352
739.88	9.319
740.06	9.350
740.24	9.353
740.42	9.351
740.61	9.380
740.79	9.449
740.97	9.441
741.15	9.495
741.33	9.525
741.51	9.524
741.70	9.518
741.88	9.564
742.06	9.571
742.24	9.608
742.42	9.647
742.60	9.674
742.78	9.640
742.97	9.644
743.15	9.600
743.33	9.602
743.51	9.626
743.69	9.679
743.87	9.681
744.05	9.702
744.24	9.673
744.42	9.652
744.60	9.653
744.78	9.735
744.96	9.814
745.14	9.857
745.32	9.867
745.50	9.843
745.69	9.807
745.87	9.797
746.05	9.787
746.23	9.807
746.41	9.783
746.59	9.744
746.77	9.662
746.95	9.632
747.13	9.609
747.32	9.667
747.50	9.738
747.68	9.775
747.86	9.808
748.04	9.835
748.22	9.856
748.40	9.955
748.58	9.996
748.76	10.050
748.94	10.079
749.13	10.145
749.31	10.101
749.49	10.059
749.67	10.090
749.85	10.083
750.03	10.093
750.21	10.087
750.39	10.081
750.57	10.116
750.75	10.115
750.93	10.099
751.11	10.065
751.30	10.083
751.48	10.147
751.66	10.123
751.84	10.105
752.02	10.125
752.20	10.179
752.38	10.138
752.56	10.102
752.74	10.083
752.92	10.095
753.10	10.135
753.28	10.137
753.46	10.110
753.64	10.063
753.82	10.124
754.00	10.115
754.18	10.123
754.37	10.103
754.55	10.165
754.73	10.165
754.91	10.144
755.09	10.130
755.27	10.174
755.45	10.162
755.63	10.239
755.81	10.217
755.99	10.228
756.17	10.187
756.35	10.250
756.53	10.222
756.71	10.278
756.89	10.327
757.07	10.286
757.25	10.256
757.43	10.270
757.61	10.238
757.79	10.239
757.97	10.211
758.15	10.279
758.33	10.298
758.51	10.345
758.69	10.335
758.87	10.313
759.05	10.302
759.23	10.321
759.41	10.371
759.59	10.401
759.77	10.392
759.95	10.420
760.13	10.419
760.31	10.405
760.49	10.408
760.67	10.429
760.85	10.469
761.03	10.525
761.21	10.538
761.39	10.563
761.57	10.583
761.75	10.636
761.93	10.634
762.11	10.577
762.29	10.553
762.47	10.565
762.65	10.569
762.83	10.547
763.01	10.592
763.19	10.592
763.37	10.568
763.55	10.573
763.73	10.583
763.91	10.608
764.09	10.631
764.27	10.679
764.45	10.667
764.63	10.641
764.81	10.645
764.99	10.640
765.16	10.624
765.34	10.629
765.52	10.619
765.70	10.622
765.88	10.628
766.06	10.637
766.24	10.642
766.42	10.628
766.60	10.674
766.78	10.666
766.96	10.696
767.14	10.738
767.32	10.729
767.50	10.712
767.68	10.698
767.86	10.707
768.03	10.744
768.21	10.717
768.39	10.699
768.57	10.679
768.75	10.720
768.93	10.722
769.11	10.713
769.29	10.748
769.47	10.825
769.65	10.864
769.83	10.903
770.01	10.926
770.19	10.907
770.36	11.006
770.54	11.053
770.72	11.110
770.90	11.092
771.08	11.158
771.26	11.163
771.44	11.098
771.62	11.079
771.80	11.045
771.98	10.986
772.15	11.055
772.33	11.100
772.51	11.086
772.69	10.998
772.87	11.029
773.05	10.941
773.23	11.002
773.41	11.103
773.58	11.056
773.76	11.112
773.94	11.124
774.12	11.086
774.30	11.064
774.48	11.036
774.66	11.047
774.84	11.009
775.01	11.064
775.19	10.993
775.37	11.022
775.55	11.091
775.73	11.102
775.91	11.128
776.09	11.227
776.26	11.150
776.44	11.176
776.62	11.259
776.80	11.212
776.98	11.251
777.16	11.289
777.34	11.279
777.51	11.274
777.69	11.170
777.87	11.112
778.05	11.068
778.23	11.143
778.41	11.209
778.58	11.210
778.76	11.335
778.94	11.350
779.12	11.399
779.30	11.409
779.48	11.458
779.65	11.524
779.83	11.585
780.01	11.620
780.19	11.704
780.37	11.653
780.55	11.688
780.72	11.656
780.90	11.590
781.08	11.636
781.26	11.703
781.44	11.708
781.61	11.716
781.79	11.739
781.97	11.745
782.15	11.658
782.33	11.696
782.50	11.692
782.68	11.728
782.86	11.746
783.04	11.686
783.22	11.656
783.39	11.621
783.57	11.658
783.75	11.688
783.93	11.714
784.11	11.746
784.28	11.628
784.46	11.635
784.64	11.614
784.82	11.701
784.99	11.691
785.17	11.649
785.35	11.708
785.53	11.689
785.71	11.685
785.88	11.636
786.06	11.630
786.24	11.845
786.42	11.807
786.59	11.795
786.77	11.831
786.95	11.893
787.13	11.952
787.30	11.987
787.48	12.103
787.66	12.124
787.84	12.188
788.01	12.228
788.19	12.210
788.37	12.215
788.55	12.238
788.72	12.249
788.90	12.238
789.08	12.223
789.26	12.151
789.43	12.041
789.61	12.001
789.79	11.980
789.97	11.983
790.14	11.952
790.32	11.975
790.50	11.983
790.68	11.976
790.85	11.902
791.03	11.912
791.21	11.976
791.38	12.023
791.56	12.031
791.74	12.066
791.92	12.016
792.09	12.032
792.27	12.073
792.45	12.055
792.62	11.946
792.80	11.968
792.98	11.821
793.16	11.782
793.33	11.743
793.51	11.815
793.69	11.827
793.86	11.768
794.04	11.705
794.22	11.656
794.39	11.712
794.57	11.834
794.75	12.005
794.93	12.162
795.10	12.121
795.28	12.254
795.46	12.275
795.63	12.300
795.81	12.488
795.99	12.465
796.16	12.537
796.34	12.578
796.52	12.492
796.69	12.409
796.87	12.445
797.05	12.601
797.22	12.507
797.40	12.527
797.58	12.501
797.75	12.510
797.93	12.636
798.11	12.706
798.28	12.759
798.46	12.852
798.64	12.820
798.81	12.737
798.99	12.646
799.17	12.676
799.34	12.594
799.52	12.597
799.70	12.543
799.87	12.594
800.05	12.463
800.22	12.399
800.40	12.373
800.58	12.409
800.75	12.474
800.93	12.542
801.11	12.522
801.28	12.666
801.46	12.629
801.63	12.681
801.81	12.592
801.99	12.667
802.16	12.637
802.34	12.710
802.52	12.798
802.69	12.864
802.87	12.834
803.04	12.922
803.22	12.891
803.40	12.938
803.57	12.886
803.75	12.949
803.93	12.897
804.10	12.880
804.28	12.891
804.45	12.850
804.63	12.894
804.81	12.947
804.98	12.998
805.16	13.033
805.33	13.144
805.51	13.228
805.68	13.196
805.86	13.252
806.04	13.304
806.21	13.373
806.39	13.374
806.56	13.338
806.74	13.333
806.92	13.313
807.09	13.265
807.27	13.281
807.44	13.314
807.62	13.391
807.79	13.433
807.97	13.520
808.15	13.386
808.32	13.413
808.50	13.433
808.67	13.452
808.85	13.393
809.02	13.426
809.20	13.327
809.38	13.303
809.55	13.215
809.73	13.201
809.90	13.229
810.08	13.278
810.25	13.283
810.43	13.190
810.60	13.182
810.78	13.275
810.95	13.223
811.13	13.343
811.31	13.380
811.48	13.431
811.66	13.384
811.83	13.253
812.01	13.203
812.18	13.086
812.36	13.118
812.53	13.000
812.71	13.030
812.88	13.083
813.06	12.935
813.23	12.904
813.41	13.051
813.58	13.105
813.76	13.180
813.93	13.255
814.11	13.342
814.28	13.329
814.46	13.429
814.63	13.418
814.81	13.454
814.98	13.573
815.16	13.570
815.33	13.387
815.51	13.488
815.68	13.447
815.86	13.475
816.03	13.458
816.21	13.551
816.38	13.511
816.56	13.349
816.73	13.358
816.91	13.282
817.08	13.358
817.26	13.390
817.43	13.376
817.61	13.435
817.78	13.411
817.96	13.430
818.13	13.359
818.31	13.405
818.48	13.618
818.66	13.656
818.83	13.634
819.01	13.547
819.18	13.650
819.36	13.658
819.53	13.607
819.70	13.612
819.88	13.819
820.05	14.006
820.23	14.104
820.40	14.047
820.58	14.003
820.75	14.088
820.93	14.087
821.10	14.035
821.28	14.069
821.45	14.145
821.62	14.208
821.80	14.169
821.97	14.152
822.15	14.169
822.32	14.231
822.50	14.334
822.67	14.453
822.84	14.528
823.02	14.479
823.19	14.348
823.37	14.228
823.54	14.125
823.72	14.017
823.89	13.941
824.06	13.883
824.24	13.828
824.41	13.778
824.59	13.717
824.76	13.655
824.94	13.614
825.11	13.584
825.28	13.572
825.46	13.557
825.63	13.588
825.81	13.619
825.98	13.662
826.15	13.723
826.33	13.750
826.50	13.788
826.68	13.825
826.85	13.822
827.02	13.867
827.20	13.918
827.37	14.002
827.54	14.062
827.72	14.156
827.89	14.212
828.07	14.236
828.24	14.280
828.41	14.287
828.59	14.266
828.76	14.249
828.94	14.232
829.11	14.193
829.28	14.174
829.46	14.139
829.63	14.075
829.80	14.063
829.98	14.022
830.15	13.978
830.32	13.962
830.50	13.969
830.67	14.057
830.85	14.119
831.02	14.152
831.19	14.195
831.37	14.291
831.54	14.339
831.71	14.332
831.89	14.415
832.06	14.475
832.23	14.518
832.41	14.574
832.58	14.501
832.75	14.496
832.93	14.518
833.10	14.478
833.27	14.495
833.45	14.601
833.62	14.620
833.79	14.646
833.97	14.709
834.14	14.705
834.31	14.764
834.49	14.850
834.66	14.755
834.83	14.822
835.01	14.773
835.18	14.699
835.35	14.652
835.52	14.607
835.70	14.564
835.87	14.522
836.04	14.537
836.22	14.482
836.39	14.444
836.56	14.450
836.74	14.401
836.91	14.449
837.08	14.467
837.25	14.484
837.43	14.483
837.60	14.529
837.77	14.537
837.95	14.561
838.12	14.600
838.29	14.588
838.46	14.656
838.64	14.626
838.81	14.446
838.98	14.535
839.16	14.577
839.33	14.611
839.50	14.569
839.67	14.771
839.85	14.552
840.02	14.659
840.19	14.511
840.36	14.714
840.54	14.743
840.71	14.944
840.88	14.814
841.06	14.823
841.23	14.894
841.40	14.969
841.57	14.842
841.75	14.942
841.92	14.809
842.09	14.892
842.26	14.743
842.44	14.694
842.61	14.653
842.78	14.698
842.95	14.705
843.12	14.658
843.30	14.515
843.47	14.654
843.64	14.742
843.81	14.900
843.99	14.877
844.16	14.972
844.33	15.003
844.50	15.179
844.68	15.199
844.85	15.101
845.02	15.311
845.19	15.493
845.36	15.195
845.54	15.084
845.71	15.120
845.88	15.238
846.05	15.144
846.22	15.379
846.40	15.449
846.57	15.622
846.74	15.678
846.91	15.443
847.08	15.549
847.26	15.909
847.43	16.012
847.60	15.943
847.77	15.730
847.94	15.860
848.12	15.899
848.29	15.764
848.46	15.548
848.63	15.559
848.80	15.808
848.98	15.998
849.15	15.940
849.32	15.775
849.49	15.705
849.66	15.852
849.83	15.709
850.01	15.594
850.18	15.485
850.35	15.595
850.52	15.741
850.69	15.547
850.86	15.305
851.04	14.912
851.21	15.124
851.38	14.855
851.55	14.839
851.72	14.608
851.89	14.684
852.06	14.759
852.24	14.625
852.41	14.733
852.58	14.640
852.75	14.811
852.92	15.336
853.09	15.657
853.26	15.761
853.44	16.095
853.61	16.355
853.78	16.062
853.95	16.169
854.12	16.044
854.29	16.227
854.46	16.589
854.64	16.644
854.81	16.772
854.98	16.223
855.15	16.505
855.32	16.471
855.49	16.477
855.66	16.728
855.83	16.705
856.00	16.984
856.18	16.763
856.35	16.529
856.52	16.450
856.69	16.345
856.86	16.452
857.03	16.448
857.20	16.393
857.37	16.610
857.54	16.748
857.71	16.714
857.89	16.724
858.06	16.732
858.23	16.905
858.40	16.800
858.57	16.584
858.74	16.723
858.91	16.551
859.08	16.409
859.25	16.465
859.42	16.338
859.59	16.387
859.76	16.426
859.94	16.352
860.11	16.264
860.28	16.348
860.45	16.508
860.62	16.472
860.79	16.333
860.96	16.590
861.13	16.304
861.30	16.225
861.47	16.153
861.64	16.118
861.81	16.139
861.98	16.198
862.15	16.124
862.32	16.220
862.49	16.076
862.66	16.314
862.83	16.011
863.01	16.329
863.18	16.382
863.35	16.262
863.52	16.634
863.69	16.425
863.86	16.404
864.03	16.427
864.20	16.382
864.37	16.415
864.54	16.502
864.71	16.881
864.88	16.844
865.05	16.923
865.22	16.926
865.39	16.678
865.56	16.861
865.73	16.855
865.90	16.697
866.07	16.355
866.24	16.246
866.41	16.176
866.58	15.953
866.75	15.879
866.92	15.639
867.09	15.791
867.26	15.838
867.43	15.883
867.60	16.011
867.77	16.229
867.94	16.342
868.11	16.698
868.28	17.094
868.45	17.081
868.62	16.888
868.79	16.944
868.96	17.041
869.13	17.072
869.30	16.950
869.47	16.631
869.64	16.703
869.81	17.008
869.98	16.890
870.15	16.744
870.32	16.891
870.49	16.756
870.66	17.183
870.83	16.918
871.00	17.055
871.16	16.894
871.33	17.200
871.50	17.011
871.67	16.716
871.84	16.607
872.01	16.527
872.18	16.456
872.35	16.945
872.52	16.944
872.69	16.979
872.86	16.815
873.03	17.330
873.20	17.282
873.37	17.442
873.54	17.693
873.71	17.737
873.88	17.839
874.05	17.895
874.21	17.967
874.38	17.583
874.55	17.703
874.72	17.470
874.89	17.221
875.06	17.125
875.23	17.082
875.40	16.947
875.57	17.132
875.74	17.175
875.91	17.170
876.08	16.816
876.24	17.097
876.41	17.197
876.58	17.401
876.75	17.505
876.92	17.416
877.09	17.384
877.26	17.420
877.43	17.228
877.60	17.280
877.77	17.043
877.93	17.191
878.10	17.153
878.27	16.946
878.44	16.746
878.61	16.659
878.78	16.646
878.95	16.721
879.12	16.888
879.28	17.172
879.45	16.925
879.62	17.195
879.79	16.883
879.96	16.958
880.13	17.009
880.30	17.120
880.47	17.126
880.63	17.444
880.80	17.406
880.97	17.362
881.14	17.283
881.31	17.422
881.48	17.526
881.65	17.943
881.81	18.037
881.98	18.275
882.15	18.363
882.32	18.401
882.49	18.303
882.66	18.283
882.82	18.162
882.99	18.080
883.16	17.998
883.33	17.911
883.50	17.803
883.67	17.741
883.83	17.682
884.00	17.624
884.17	17.563
884.34	17.519
884.51	17.451
884.68	17.435
884.84	17.412
885.01	17.400
885.18	17.404
885.35	17.430
885.52	17.424
885.68	17.410
885.85	17.393
886.02	17.529
886.19	17.424
886.36	17.224
886.53	17.695
886.69	17.135
>>>>>End Spectral Data<<<<<
